%OpenBCI Raw EEG Data
%Number of channels = 4
%Sample Rate = 200.0 Hz
%First Column = SampleIndex
%Last Column = Timestamp 
%Other Columns = EEG data in microvolts followed by Accel Data (in G) interleaved with Aux Data
0, 709.62, -695.60, 876.12, -555.65, 0.000, 0.000, 0.000, 14:10:25.539, 1554495025539
1, 828.65, -815.34, 695.61, -205.56, 0.000, 0.000, 0.000, 14:10:25.541, 1554495025541
2, 1477.25, -370.52, 403.40, 638.65, 0.000, 0.000, 0.000, 14:10:25.541, 1554495025541
3, 944.63, -494.78, 1008.48, -213.74, 0.000, 0.000, 0.000, 14:10:25.554, 1554495025554
4, 680.39, -853.11, 71.79, -412.67, 0.000, 0.000, 0.000, 14:10:25.554, 1554495025554
5, 1324.71, -530.40, -773.64, 477.50, 0.000, 0.000, 0.000, 14:10:25.556, 1554495025556
6, 1273.83, -312.55, -254.33, 157.48, 0.000, 0.000, 0.000, 14:10:25.556, 1554495025556
7, 632.32, -837.20, -540.24, -638.11, 0.000, 0.000, 0.000, 14:10:25.569, 1554495025569
8, 1064.08, -698.16, -664.49, 126.04, 0.000, 0.000, 0.000, 14:10:25.569, 1554495025569
9, 1525.47, -242.29, 85.59, 564.50, 0.000, 0.000, 0.000, 14:10:25.585, 1554495025585
10, 744.18, -695.25, 860.49, 412.79, 0.000, 0.000, 0.000, 14:10:25.585, 1554495025585
11, 863.88, -803.95, 696.94, 755.71, 0.000, 0.000, 0.000, 14:10:25.586, 1554495025586
12, 1522.71, -356.28, 426.49, 1661.21, 0.000, 0.000, 0.000, 14:10:25.586, 1554495025586
13, 987.54, -489.53, 1006.69, 716.73, 0.000, 0.000, 0.000, 14:10:25.599, 1554495025599
14, 690.56, -850.30, 67.19, 499.04, 0.000, 0.000, 0.000, 14:10:25.599, 1554495025599
15, 1352.19, -518.91, -776.75, 1412.76, 0.000, 0.000, 0.000, 14:10:25.614, 1554495025614
16, 1331.74, -280.01, -253.51, 1160.12, 0.000, 0.000, 0.000, 14:10:25.614, 1554495025614
17, 646.06, -824.14, -499.64, 369.44, 0.000, 0.000, 0.000, 14:10:25.615, 1554495025615
18, 1066.65, -687.95, -647.35, 1054.76, 0.000, 0.000, 0.000, 14:10:25.615, 1554495025615
19, 1562.06, -217.00, 90.32, 1535.16, 0.000, 0.000, 0.000, 14:10:25.629, 1554495025629
20, 758.11, -667.48, 912.08, 1435.75, 0.000, 0.000, 0.000, 14:10:25.629, 1554495025629
21, 857.30, -771.22, 697.04, 1734.50, 0.000, 0.000, 0.000, 14:10:25.644, 1554495025644
22, 1526.38, -321.14, 406.20, 2652.00, 0.000, 0.000, 0.000, 14:10:25.644, 1554495025644
23, 993.61, -452.86, 1033.77, 1674.07, 0.000, 0.000, 0.000, 14:10:25.645, 1554495025645
24, 714.24, -828.55, 72.48, 1460.24, 0.000, 0.000, 0.000, 14:10:25.645, 1554495025645
25, 1365.79, -498.39, -788.48, 2408.33, 0.000, 0.000, 0.000, 14:10:25.675, 1554495025675
26, 1306.28, -279.05, -236.43, 2092.80, 0.000, 0.000, 0.000, 14:10:25.676, 1554495025676
27, 648.74, -804.75, -527.33, 1343.98, 0.000, 0.000, 0.000, 14:10:25.677, 1554495025677
28, 1095.30, -675.57, -650.53, 2079.49, 0.000, 0.000, 0.000, 14:10:25.677, 1554495025677
29, 1545.72, -229.22, 65.69, 2497.11, 0.000, 0.000, 0.000, 14:10:25.689, 1554495025689
30, 739.02, -669.23, 900.24, 2373.10, 0.000, 0.000, 0.000, 14:10:25.689, 1554495025689
31, 862.05, -769.73, 678.44, 2629.79, 0.000, 0.000, 0.000, 14:10:25.704, 1554495025704
32, 1542.41, -319.55, 426.51, 3588.88, 0.000, 0.000, 0.000, 14:10:25.704, 1554495025704
33, 996.82, -450.37, 1043.27, 2713.76, 0.000, 0.000, 0.000, 14:10:25.706, 1554495025706
34, 712.54, -827.08, 68.54, 2444.29, 0.000, 0.000, 0.000, 14:10:25.706, 1554495025706
35, 1364.16, -490.47, -799.50, 3325.81, 0.000, 0.000, 0.000, 14:10:25.706, 1554495025706
36, 1302.52, -260.42, -259.54, 3141.01, 0.000, 0.000, 0.000, 14:10:25.706, 1554495025706
37, 654.17, -797.50, -508.03, 2337.57, 0.000, 0.000, 0.000, 14:10:25.718, 1554495025718
38, 1086.48, -670.10, -655.65, 3034.27, 0.000, 0.000, 0.000, 14:10:25.718, 1554495025718
39, 1536.96, -214.21, 73.94, 3497.40, 0.000, 0.000, 0.000, 14:10:25.734, 1554495025734
40, 729.39, -652.23, 892.89, 3340.14, 0.000, 0.000, 0.000, 14:10:25.734, 1554495025734
41, 847.13, -771.79, 685.33, 3688.37, 0.000, 0.000, 0.000, 14:10:25.735, 1554495025735
42, 1535.47, -307.06, 410.89, 4532.63, 0.000, 0.000, 0.000, 14:10:25.735, 1554495025735
43, 988.74, -445.53, 1007.62, 3603.77, 0.000, 0.000, 0.000, 14:10:25.748, 1554495025748
44, 710.73, -801.51, 79.55, 3375.50, 0.000, 0.000, 0.000, 14:10:25.748, 1554495025748
45, 1332.82, -474.79, -792.12, 3383.75, 0.000, 0.000, 0.000, 14:10:25.796, 1554495025796
46, 1306.32, -251.09, -211.78, 3102.65, 0.000, 0.000, 0.000, 14:10:25.796, 1554495025796
47, 630.67, -790.20, -513.06, 2351.52, 0.000, 0.000, 0.000, 14:10:25.797, 1554495025797
48, 1057.24, -646.54, -656.75, 3055.72, 0.000, 0.000, 0.000, 14:10:25.797, 1554495025797
49, 1525.84, -198.61, 61.21, 3484.70, 0.000, 0.000, 0.000, 14:10:25.799, 1554495025799
50, 729.96, -644.84, 861.55, 3332.33, 0.000, 0.000, 0.000, 14:10:25.799, 1554495025799
51, 834.74, -753.28, 660.29, 3601.76, 0.000, 0.000, 0.000, 14:10:25.800, 1554495025800
52, 1538.27, -281.77, 416.03, 4513.53, 0.000, 0.000, 0.000, 14:10:25.800, 1554495025800
53, 975.82, -418.76, 1052.60, 3670.46, 0.000, 0.000, 0.000, 14:10:25.809, 1554495025809
54, 689.92, -799.13, 75.99, 3427.06, 0.000, 0.000, 0.000, 14:10:25.809, 1554495025809
55, 1337.24, -462.61, -780.96, 4372.38, 0.000, 0.000, 0.000, 14:10:25.810, 1554495025810
56, 1303.07, -236.51, -230.92, 4072.80, 0.000, 0.000, 0.000, 14:10:25.810, 1554495025810
57, 623.58, -771.12, -503.00, 3291.50, 0.000, 0.000, 0.000, 14:10:25.824, 1554495025824
58, 1054.46, -638.78, -659.92, 4017.70, 0.000, 0.000, 0.000, 14:10:25.824, 1554495025824
59, 1522.42, -186.36, 68.28, 4427.67, 0.000, 0.000, 0.000, 14:10:25.825, 1554495025825
60, 728.21, -615.46, 881.04, 4269.54, 0.000, 0.000, 0.000, 14:10:25.825, 1554495025825
61, 851.98, -727.68, 673.86, 4611.42, 0.000, 0.000, 0.000, 14:10:25.838, 1554495025838
62, 1521.05, -269.44, 424.47, 5557.98, 0.000, 0.000, 0.000, 14:10:25.838, 1554495025838
63, 973.56, -403.44, 1030.71, 4634.58, 0.000, 0.000, 0.000, 14:10:25.871, 1554495025871
64, 681.88, -778.36, 71.65, 4414.22, 0.000, 0.000, 0.000, 14:10:25.871, 1554495025871
65, 1337.51, -442.18, -769.70, 5341.03, 0.000, 0.000, 0.000, 14:10:25.872, 1554495025872
66, 1286.40, -221.22, -232.32, 5057.07, 0.000, 0.000, 0.000, 14:10:25.872, 1554495025872
67, 612.36, -736.50, -520.96, 4292.43, 0.000, 0.000, 0.000, 14:10:25.872, 1554495025872
68, 1069.84, -613.53, -664.03, 4991.02, 0.000, 0.000, 0.000, 14:10:25.872, 1554495025872
69, 1510.11, -152.63, 82.04, 5469.56, 0.000, 0.000, 0.000, 14:10:25.873, 1554495025873
70, 714.44, -605.59, 875.05, 5291.64, 0.000, 0.000, 0.000, 14:10:25.873, 1554495025873
71, 841.68, -715.19, 668.84, 5602.20, 0.000, 0.000, 0.000, 14:10:25.884, 1554495025884
72, 1488.99, -265.48, 418.93, 6505.47, 0.000, 0.000, 0.000, 14:10:25.884, 1554495025884
73, 956.94, -393.47, 1025.39, 5620.12, 0.000, 0.000, 0.000, 14:10:25.899, 1554495025899
74, 672.86, -762.88, 83.40, 5409.09, 0.000, 0.000, 0.000, 14:10:25.899, 1554495025899
75, 1309.80, -430.47, -798.28, 6320.19, 0.000, 0.000, 0.000, 14:10:25.914, 1554495025914
76, 1266.54, -197.93, -271.16, 5989.72, 0.000, 0.000, 0.000, 14:10:25.914, 1554495025914
77, 609.75, -732.03, -521.93, 5243.92, 0.000, 0.000, 0.000, 14:10:25.916, 1554495025916
78, 1054.07, -597.84, -676.33, 5934.93, 0.000, 0.000, 0.000, 14:10:25.916, 1554495025916
79, 1497.50, -146.95, 82.46, 6434.44, 0.000, 0.000, 0.000, 14:10:25.929, 1554495025929
80, 684.67, -600.84, 894.27, 6280.47, 0.000, 0.000, 0.000, 14:10:25.929, 1554495025929
81, 797.80, -710.57, 663.53, 6603.17, 0.000, 0.000, 0.000, 14:10:25.944, 1554495025944
82, 1481.52, -248.19, 395.99, 7481.99, 0.000, 0.000, 0.000, 14:10:25.944, 1554495025944
83, 936.18, -383.72, 1019.48, 6568.25, 0.000, 0.000, 0.000, 14:10:25.946, 1554495025946
84, 654.49, -748.64, 72.62, 6369.12, 0.000, 0.000, 0.000, 14:10:25.946, 1554495025946
85, 1311.37, -419.19, -784.92, 7324.51, 0.000, 0.000, 0.000, 14:10:25.959, 1554495025959
86, 1249.72, -200.05, -216.93, 7026.32, 0.000, 0.000, 0.000, 14:10:25.959, 1554495025959
87, 579.68, -729.87, -511.69, 6213.10, 0.000, 0.000, 0.000, 14:10:25.976, 1554495025976
88, 1037.55, -595.78, -660.86, 6914.87, 0.000, 0.000, 0.000, 14:10:25.976, 1554495025976
89, 1488.73, -134.63, 67.50, 7372.77, 0.000, 0.000, 0.000, 14:10:25.978, 1554495025978
90, 669.29, -590.29, 873.55, 7257.57, 0.000, 0.000, 0.000, 14:10:25.978, 1554495025978
91, 807.48, -683.20, 707.63, 7629.87, 0.000, 0.000, 0.000, 14:10:25.988, 1554495025988
92, 1469.43, -236.36, 409.41, 8471.96, 0.000, 0.000, 0.000, 14:10:25.988, 1554495025988
93, 928.82, -370.50, 1047.44, 7544.43, 0.000, 0.000, 0.000, 14:10:26.020, 1554495026020
94, 626.16, -727.50, 71.99, 7340.25, 0.000, 0.000, 0.000, 14:10:26.020, 1554495026020
95, 1283.66, -400.50, -778.35, 8250.73, 0.000, 0.000, 0.000, 14:10:26.021, 1554495026021
96, 1234.28, -183.21, -194.37, 8029.50, 0.000, 0.000, 0.000, 14:10:26.021, 1554495026021
97, 565.72, -730.08, -521.30, 7195.24, 0.000, 0.000, 0.000, 14:10:26.022, 1554495026022
98, 1015.68, -587.53, -665.25, 7918.78, 0.000, 0.000, 0.000, 14:10:26.022, 1554495026022
99, 1466.15, -118.00, 72.81, 8333.79, 0.000, 0.000, 0.000, 14:10:26.023, 1554495026023
100, 649.02, -589.38, 880.34, 8238.68, 0.000, 0.000, 0.000, 14:10:26.023, 1554495026023
101, 762.48, -700.24, 678.56, 8544.25, 0.000, 0.000, 0.000, 14:10:26.033, 1554495026033
102, 1425.01, -245.68, 399.82, 9418.11, 0.000, 0.000, 0.000, 14:10:26.033, 1554495026033
103, 894.22, -370.72, 1021.41, 8478.15, 0.000, 0.000, 0.000, 14:10:26.048, 1554495026048
104, 611.81, -744.07, 45.25, 8288.71, 0.000, 0.000, 0.000, 14:10:26.048, 1554495026048
105, 1268.98, -390.32, -780.03, 9244.15, 0.000, 0.000, 0.000, 14:10:26.064, 1554495026064
106, 1212.37, -175.16, -234.06, 8937.73, 0.000, 0.000, 0.000, 14:10:26.064, 1554495026064
107, 539.82, -716.65, -531.85, 8126.13, 0.000, 0.000, 0.000, 14:10:26.066, 1554495026066
108, 982.45, -564.20, -671.28, 8868.11, 0.000, 0.000, 0.000, 14:10:26.066, 1554495026066
109, 1426.32, -109.29, 100.35, 9319.00, 0.000, 0.000, 0.000, 14:10:26.078, 1554495026078
110, 634.52, -565.26, 879.63, 9179.30, 0.000, 0.000, 0.000, 14:10:26.078, 1554495026078
111, 748.66, -675.96, 655.77, 9463.59, 0.000, 0.000, 0.000, 14:10:26.109, 1554495026109
112, 1422.34, -209.88, 408.92, 10415.53, 0.000, 0.000, 0.000, 14:10:26.109, 1554495026109
113, 875.06, -335.87, 1021.42, 9486.78, 0.000, 0.000, 0.000, 14:10:26.111, 1554495026111
114, 593.98, -716.71, 49.18, 9264.43, 0.000, 0.000, 0.000, 14:10:26.111, 1554495026111
115, 1220.06, -383.48, -772.31, 10234.99, 0.000, 0.000, 0.000, 14:10:26.124, 1554495026124
116, 1188.39, -150.42, -251.29, 9906.74, 0.000, 0.000, 0.000, 14:10:26.124, 1554495026124
117, 521.16, -684.75, -523.41, 9117.83, 0.000, 0.000, 0.000, 14:10:26.126, 1554495026126
118, 967.22, -548.03, -672.58, 9835.94, 0.000, 0.000, 0.000, 14:10:26.126, 1554495026126
119, 1406.40, -101.61, 70.57, 10321.43, 0.000, 0.000, 0.000, 14:10:26.127, 1554495026127
120, 609.63, -554.26, 861.04, 10118.46, 0.000, 0.000, 0.000, 14:10:26.127, 1554495026127
121, 739.97, -650.04, 685.49, 10490.70, 0.000, 0.000, 0.000, 14:10:26.138, 1554495026138
122, 1388.83, -206.90, 411.21, 11370.21, 0.000, 0.000, 0.000, 14:10:26.138, 1554495026138
123, 864.30, -323.14, 1040.22, 10454.62, 0.000, 0.000, 0.000, 14:10:26.154, 1554495026154
124, 575.15, -701.36, 1037.67, 10264.41, 0.000, 0.000, 0.000, 14:10:26.154, 1554495026154
125, 1230.96, -368.87, 201.89, 11194.12, 0.000, 0.000, 0.000, 14:10:26.155, 1554495026155
126, 1159.61, -148.17, 754.75, 10883.99, 0.000, 0.000, 0.000, 14:10:26.155, 1554495026155
127, 509.40, -670.93, 455.43, 10129.62, 0.000, 0.000, 0.000, 14:10:26.168, 1554495026168
128, 970.03, -531.14, 325.27, 10847.83, 0.000, 0.000, 0.000, 14:10:26.168, 1554495026168
129, 1394.63, -87.66, 1058.80, 11272.91, 0.000, 0.000, 0.000, 14:10:26.184, 1554495026184
130, 593.28, -537.11, 1845.98, 11134.36, 0.000, 0.000, 0.000, 14:10:26.184, 1554495026184
131, 728.35, -638.30, 1653.16, 11438.18, 0.000, 0.000, 0.000, 14:10:26.185, 1554495026185
132, 1386.11, -187.17, 1403.04, 12314.39, 0.000, 0.000, 0.000, 14:10:26.185, 1554495026185
133, 840.99, -321.12, 2004.52, 11454.79, 0.000, 0.000, 0.000, 14:10:26.198, 1554495026198
134, 555.55, -702.05, 1037.28, 11242.02, 0.000, 0.000, 0.000, 14:10:26.198, 1554495026198
135, 1196.83, -355.18, 191.98, 12179.43, 0.000, 0.000, 0.000, 14:10:26.214, 1554495026214
136, 1148.15, -141.24, 750.76, 11849.62, 0.000, 0.000, 0.000, 14:10:26.214, 1554495026214
137, 495.27, -659.16, 456.40, 11077.26, 0.000, 0.000, 0.000, 14:10:26.215, 1554495026215
138, 947.84, -525.30, 312.84, 11843.47, 0.000, 0.000, 0.000, 14:10:26.215, 1554495026215
139, 1373.86, -76.44, 1074.28, 12275.22, 0.000, 0.000, 0.000, 14:10:26.228, 1554495026228
140, 571.64, -522.33, 1852.03, 12101.85, 0.000, 0.000, 0.000, 14:10:26.228, 1554495026228
141, 689.88, -640.03, 1655.93, 12451.87, 0.000, 0.000, 0.000, 14:10:26.244, 1554495026244
142, 1378.00, -169.97, 1376.23, 13357.89, 0.000, 0.000, 0.000, 14:10:26.244, 1554495026244
143, 827.49, -304.00, 2018.49, 12390.18, 0.000, 0.000, 0.000, 14:10:26.245, 1554495026245
144, 519.57, -672.39, 1997.62, 12167.40, 0.000, 0.000, 0.000, 14:10:26.245, 1554495026245
145, 1195.70, -342.34, 1166.07, 12186.76, 0.000, 0.000, 0.000, 14:10:26.259, 1554495026259
146, 1167.70, -109.12, 1736.93, 11884.48, 0.000, 0.000, 0.000, 14:10:26.259, 1554495026259
147, 473.86, -641.79, 1462.98, 11094.40, 0.000, 0.000, 0.000, 14:10:26.274, 1554495026274
148, 929.01, -501.18, 1296.82, 11830.14, 0.000, 0.000, 0.000, 14:10:26.274, 1554495026274
149, 1383.44, -34.86, 2055.61, 12309.60, 0.000, 0.000, 0.000, 14:10:26.275, 1554495026275
150, 564.08, -510.24, 2858.62, 12120.07, 0.000, 0.000, 0.000, 14:10:26.275, 1554495026275
151, 670.58, -626.08, 2626.18, 12468.47, 0.000, 0.000, 0.000, 14:10:26.289, 1554495026289
152, 1355.71, -180.73, 2352.56, 13344.64, 0.000, 0.000, 0.000, 14:10:26.289, 1554495026289
153, 823.90, -314.85, 2974.67, 12399.72, 0.000, 0.000, 0.000, 14:10:26.319, 1554495026319
154, 528.15, -679.85, 2025.75, 12196.71, 0.000, 0.000, 0.000, 14:10:26.319, 1554495026319
155, 1177.38, -353.01, 1131.43, 13152.47, 0.000, 0.000, 0.000, 14:10:26.335, 1554495026335
156, 1128.98, -116.60, 1698.74, 12860.14, 0.000, 0.000, 0.000, 14:10:26.335, 1554495026335
157, 443.80, -672.30, 1438.75, 12032.20, 0.000, 0.000, 0.000, 14:10:26.349, 1554495026349
158, 888.81, -530.53, 1250.78, 12800.72, 0.000, 0.000, 0.000, 14:10:26.349, 1554495026349
159, 1365.48, -50.43, 2014.77, 13276.22, 0.000, 0.000, 0.000, 14:10:26.366, 1554495026366
160, 551.91, -518.30, 2859.74, 13093.76, 0.000, 0.000, 0.000, 14:10:26.366, 1554495026366
161, 665.46, -635.24, 2609.21, 13422.30, 0.000, 0.000, 0.000, 14:10:26.367, 1554495026367
162, 1366.96, -163.01, 2326.46, 14333.03, 0.000, 0.000, 0.000, 14:10:26.367, 1554495026367
163, 816.61, -284.72, 3030.11, 13429.69, 0.000, 0.000, 0.000, 14:10:26.367, 1554495026367
164, 505.41, -679.95, 3000.57, 13185.79, 0.000, 0.000, 0.000, 14:10:26.367, 1554495026367
165, 1165.12, -336.43, 2084.70, 14150.61, 0.000, 0.000, 0.000, 14:10:26.369, 1554495026369
166, 1137.32, -94.74, 2720.67, 13841.26, 0.000, 0.000, 0.000, 14:10:26.369, 1554495026369
167, 426.75, -650.00, 2440.85, 13017.88, 0.000, 0.000, 0.000, 14:10:26.379, 1554495026379
168, 890.17, -517.58, 2206.27, 13803.00, 0.000, 0.000, 0.000, 14:10:26.379, 1554495026379
169, 1358.37, -32.98, 3000.14, 14263.14, 0.000, 0.000, 0.000, 14:10:26.380, 1554495026380
170, 514.65, -507.60, 3857.46, 14070.51, 0.000, 0.000, 0.000, 14:10:26.380, 1554495026380
171, 640.73, -630.71, 3562.91, 14376.93, 0.000, 0.000, 0.000, 14:10:26.394, 1554495026394
172, 1380.37, -134.54, 3309.73, 15318.47, 0.000, 0.000, 0.000, 14:10:26.394, 1554495026394
173, 793.60, -264.32, 4012.52, 14397.51, 0.000, 0.000, 0.000, 14:10:26.395, 1554495026395
174, 472.62, -684.45, 3962.11, 14152.11, 0.000, 0.000, 0.000, 14:10:26.395, 1554495026395
175, 1172.65, -319.73, 3040.44, 14189.19, 0.000, 0.000, 0.000, 14:10:26.456, 1554495026456
176, 1116.46, -77.34, 3702.47, 13864.65, 0.000, 0.000, 0.000, 14:10:26.456, 1554495026456
177, 432.67, -643.49, 3430.32, 12998.84, 0.000, 0.000, 0.000, 14:10:26.457, 1554495026457
178, 888.24, -505.23, 3176.11, 13810.94, 0.000, 0.000, 0.000, 14:10:26.457, 1554495026457
179, 1371.44, -0.73, 3967.09, 14288.12, 0.000, 0.000, 0.000, 14:10:26.458, 1554495026458
180, 524.14, -492.97, 4850.71, 14009.41, 0.000, 0.000, 0.000, 14:10:26.458, 1554495026458
181, 628.24, -615.43, 4570.28, 14436.74, 0.000, 0.000, 0.000, 14:10:26.458, 1554495026458
182, 1373.14, -137.06, 4252.06, 15335.01, 0.000, 0.000, 0.000, 14:10:26.459, 1554495026459
183, 777.38, -272.08, 5032.03, 14372.03, 0.000, 0.000, 0.000, 14:10:26.470, 1554495026470
184, 467.93, -672.69, 4956.31, 14135.49, 0.000, 0.000, 0.000, 14:10:26.470, 1554495026470
185, 1161.23, -306.93, 4003.33, 14161.37, 0.000, 0.000, 0.000, 14:10:26.471, 1554495026471
186, 1106.86, -62.96, 4720.97, 13866.60, 0.000, 0.000, 0.000, 14:10:26.471, 1554495026471
187, 400.89, -634.88, 4429.81, 13015.83, 0.000, 0.000, 0.000, 14:10:26.473, 1554495026473
188, 862.41, -500.29, 4134.64, 13752.23, 0.000, 0.000, 0.000, 14:10:26.473, 1554495026473
189, 1339.95, -5.71, 4956.21, 14281.98, 0.000, 0.000, 0.000, 14:10:26.473, 1554495026473
190, 486.45, -498.06, 5868.86, 14019.53, 0.000, 0.000, 0.000, 14:10:26.473, 1554495026473
191, 614.39, -620.34, 5536.88, 14362.84, 0.000, 0.000, 0.000, 14:10:26.483, 1554495026483
192, 1346.10, -128.88, 5229.51, 15332.37, 0.000, 0.000, 0.000, 14:10:26.483, 1554495026483
193, 745.06, -268.49, 6019.46, 15330.81, 0.000, 0.000, 0.000, 14:10:26.498, 1554495026498
194, 421.31, -681.91, 5927.77, 15108.34, 0.000, 0.000, 0.000, 14:10:26.498, 1554495026498
195, 1137.25, -325.19, 4954.16, 15133.89, 0.000, 0.000, 0.000, 14:10:26.514, 1554495026514
196, 1092.31, -75.27, 5685.81, 14812.06, 0.000, 0.000, 0.000, 14:10:26.514, 1554495026514
197, 374.09, -643.27, 5408.79, 13928.36, 0.000, 0.000, 0.000, 14:10:26.515, 1554495026515
198, 862.18, -517.75, 5093.63, 14727.86, 0.000, 0.000, 0.000, 14:10:26.515, 1554495026515
199, 1348.82, -12.21, 5926.51, 15232.92, 0.000, 0.000, 0.000, 14:10:26.529, 1554495026529
200, 450.94, -512.47, 6838.19, 14970.43, 0.000, 0.000, 0.000, 14:10:26.529, 1554495026529
0, 594.69, -633.65, -372.08, -330.53, 0.000, 0.000, 0.000, 14:10:26.530, 1554495026530
1, 1336.14, -136.41, -656.08, 643.40, 0.000, 0.000, 0.000, 14:10:26.543, 1554495026543
2, 744.10, -276.39, 146.63, 592.19, 0.000, 0.000, 0.000, 14:10:26.543, 1554495026543
3, 419.27, -701.91, 31.10, 378.38, 0.000, 0.000, 0.000, 14:10:26.559, 1554495026559
4, 1140.64, -340.47, -924.66, 456.97, 0.000, 0.000, 0.000, 14:10:26.559, 1554495026559
5, 1082.51, -92.19, -177.68, 107.22, 0.000, 0.000, 0.000, 14:10:26.560, 1554495026560
6, 351.45, -678.58, -491.65, -752.88, 0.000, 0.000, 0.000, 14:10:26.560, 1554495026560
7, 836.48, -532.59, -790.28, 41.62, 0.000, 0.000, 0.000, 14:10:26.573, 1554495026573
8, 1339.82, -35.63, 58.30, 537.34, 0.000, 0.000, 0.000, 14:10:26.573, 1554495026573
9, 448.69, -522.06, 969.64, 232.26, 0.000, 0.000, 0.000, 14:10:26.589, 1554495026589
10, 572.08, -638.34, 594.75, 618.84, 0.000, 0.000, 0.000, 14:10:26.589, 1554495026589
11, 1323.93, -136.32, 301.01, 678.55, 0.000, 0.000, 0.000, 14:10:26.590, 1554495026590
12, 717.84, -297.89, 1127.51, 585.86, 0.000, 0.000, 0.000, 14:10:26.590, 1554495026590
13, 423.44, -726.06, 1022.26, 367.68, 0.000, 0.000, 0.000, 14:10:26.603, 1554495026603
14, 1157.60, -327.70, 1015.97, 437.63, 0.000, 0.000, 0.000, 14:10:26.604, 1554495026604
15, 1098.84, -84.20, 1810.98, 125.76, 0.000, 0.000, 0.000, 14:10:26.619, 1554495026619
16, 357.36, -682.68, 1502.62, -709.80, 0.000, 0.000, 0.000, 14:10:26.619, 1554495026619
17, 848.54, -539.93, 1143.90, 68.13, 0.000, 0.000, 0.000, 14:10:26.620, 1554495026620
18, 1361.31, -29.22, 1995.06, 582.04, 0.000, 0.000, 0.000, 14:10:26.620, 1554495026620
19, 450.93, -532.84, 2935.24, 259.75, 0.000, 0.000, 0.000, 14:10:26.634, 1554495026634
20, 589.40, -656.08, 2555.40, 663.59, 0.000, 0.000, 0.000, 14:10:26.634, 1554495026634
21, 1367.54, -133.95, 2272.44, 760.66, 0.000, 0.000, 0.000, 14:10:26.649, 1554495026649
22, 760.46, -292.74, 3131.30, 647.29, 0.000, 0.000, 0.000, 14:10:26.649, 1554495026649
23, 413.20, -721.08, 2962.52, 423.59, 0.000, 0.000, 0.000, 14:10:26.651, 1554495026651
24, 1142.82, -340.66, 1992.14, 484.94, 0.000, 0.000, 0.000, 14:10:26.651, 1554495026651
25, 1099.29, -78.90, 2803.26, 154.47, 0.000, 0.000, 0.000, 14:10:26.664, 1554495026664
26, 340.05, -697.10, 2468.26, -749.73, 0.000, 0.000, 0.000, 14:10:26.664, 1554495026664
27, 843.89, -544.97, 2113.25, 59.13, 0.000, 0.000, 0.000, 14:10:26.679, 1554495026679
28, 1355.83, -20.58, 3004.70, 577.94, 0.000, 0.000, 0.000, 14:10:26.679, 1554495026679
29, 454.92, -528.07, 3908.93, 263.06, 0.000, 0.000, 0.000, 14:10:26.681, 1554495026681
30, 593.64, -666.39, 3523.81, 593.76, 0.000, 0.000, 0.000, 14:10:26.681, 1554495026681
31, 1356.56, -134.59, 3239.48, 703.85, 0.000, 0.000, 0.000, 14:10:26.694, 1554495026694
32, 722.86, -297.02, 4105.22, 673.06, 0.000, 0.000, 0.000, 14:10:26.694, 1554495026694
33, 384.26, -738.29, 3955.10, 393.89, 0.000, 0.000, 0.000, 14:10:26.709, 1554495026709
34, 1154.47, -341.01, 3954.04, 479.37, 0.000, 0.000, 0.000, 14:10:26.709, 1554495026709
35, 1111.88, -81.53, 4771.27, 182.73, 0.000, 0.000, 0.000, 14:10:26.710, 1554495026710
36, 342.32, -712.50, 4437.20, -746.03, 0.000, 0.000, 0.000, 14:10:26.710, 1554495026710
37, 834.04, -544.53, 4078.26, 71.97, 0.000, 0.000, 0.000, 14:10:26.724, 1554495026724
38, 1356.64, -21.74, 4962.29, 583.42, 0.000, 0.000, 0.000, 14:10:26.724, 1554495026724
39, 445.22, -544.98, 5863.11, 255.74, 0.000, 0.000, 0.000, 14:10:26.739, 1554495026739
40, 582.31, -662.55, 5486.52, 623.54, 0.000, 0.000, 0.000, 14:10:26.739, 1554495026739
41, 1329.20, -148.98, 5203.90, 739.99, 0.000, 0.000, 0.000, 14:10:26.740, 1554495026740
42, 708.03, -308.86, 6075.88, 653.23, 0.000, 0.000, 0.000, 14:10:26.740, 1554495026740
43, 354.82, -729.39, 5915.86, 432.11, 0.000, 0.000, 0.000, 14:10:26.753, 1554495026753
44, 1088.17, -339.95, 4936.40, 500.88, 0.000, 0.000, 0.000, 14:10:26.753, 1554495026753
45, 1031.79, -99.63, 5721.69, 182.04, 0.000, 0.000, 0.000, 14:10:26.785, 1554495026785
46, 290.00, -697.53, 5390.72, -733.87, 0.000, 0.000, 0.000, 14:10:26.785, 1554495026785
47, 773.91, -539.54, 5055.36, 60.80, 0.000, 0.000, 0.000, 14:10:26.787, 1554495026787
48, 1277.59, -14.60, 5942.13, 636.96, 0.000, 0.000, 0.000, 14:10:26.787, 1554495026787
49, 325.73, -540.56, 6821.40, 308.59, 0.000, 0.000, 0.000, 14:10:26.799, 1554495026799
50, 452.28, -654.53, 6449.63, 710.17, 0.000, 0.000, 0.000, 14:10:26.799, 1554495026799
51, 1197.64, -126.86, 6159.91, 736.61, 0.000, 0.000, 0.000, 14:10:26.801, 1554495026801
52, 558.65, -275.20, 7010.92, 668.61, 0.000, 0.000, 0.000, 14:10:26.801, 1554495026801
53, 223.49, -705.49, 6869.50, 455.31, 0.000, 0.000, 0.000, 14:10:26.801, 1554495026801
54, 958.06, -322.47, 6866.66, 541.69, 0.000, 0.000, 0.000, 14:10:26.801, 1554495026801
55, 851.37, -66.11, 7659.98, 219.60, 0.000, 0.000, 0.000, 14:10:26.813, 1554495026813
56, 92.63, -679.76, 7314.79, -684.64, 0.000, 0.000, 0.000, 14:10:26.813, 1554495026813
57, 566.68, -516.62, 6976.95, 153.86, 0.000, 0.000, 0.000, 14:10:26.829, 1554495026829
58, 1044.07, 6.01, 7854.73, 689.62, 0.000, 0.000, 0.000, 14:10:26.829, 1554495026829
59, 124.32, -518.57, 8761.34, 364.01, 0.000, 0.000, 0.000, 14:10:26.830, 1554495026830
60, 248.24, -626.85, 8398.74, 759.58, 0.000, 0.000, 0.000, 14:10:26.830, 1554495026830
61, 978.31, -99.30, 8090.13, 812.14, 0.000, 0.000, 0.000, 14:10:26.843, 1554495026843
62, 355.46, -261.88, 8948.46, 729.13, 0.000, 0.000, 0.000, 14:10:26.843, 1554495026843
63, 1.24, -694.62, 8794.61, 500.28, 0.000, 0.000, 0.000, 14:10:26.859, 1554495026859
64, 725.56, -300.96, 8789.78, 580.82, 0.000, 0.000, 0.000, 14:10:26.859, 1554495026859
65, 663.42, -44.47, 9571.65, 225.10, 0.000, 0.000, 0.000, 14:10:26.860, 1554495026860
66, -108.30, -648.11, 9260.81, -582.87, 0.000, 0.000, 0.000, 14:10:26.860, 1554495026860
67, 378.73, -499.47, 8911.86, 219.47, 0.000, 0.000, 0.000, 14:10:26.873, 1554495026873
68, 878.26, 26.88, 9801.41, 726.87, 0.000, 0.000, 0.000, 14:10:26.873, 1554495026873
69, -28.12, -490.89, 10735.05, 430.43, 0.000, 0.000, 0.000, 14:10:26.889, 1554495026889
70, 116.06, -610.58, 10329.57, 793.62, 0.000, 0.000, 0.000, 14:10:26.889, 1554495026889
71, 873.14, -79.00, 10055.74, 857.51, 0.000, 0.000, 0.000, 14:10:26.904, 1554495026904
72, 260.27, -219.12, 10908.26, 775.41, 0.000, 0.000, 0.000, 14:10:26.904, 1554495026904
73, -55.74, -641.58, 10772.62, 540.88, 0.000, 0.000, 0.000, 14:10:26.906, 1554495026906
74, 688.66, -243.23, 9799.94, 656.89, 0.000, 0.000, 0.000, 14:10:26.906, 1554495026906
75, 636.70, -2.08, 10575.34, 327.02, 0.000, 0.000, 0.000, 14:10:26.919, 1554495026919
76, -118.52, -622.09, 10253.47, -605.20, 0.000, 0.000, 0.000, 14:10:26.919, 1554495026919
77, 381.75, -472.96, 9899.71, 227.94, 0.000, 0.000, 0.000, 14:10:26.921, 1554495026921
78, 889.30, 50.20, 10797.86, 746.22, 0.000, 0.000, 0.000, 14:10:26.921, 1554495026921
79, -1.37, -464.07, 11724.42, 453.09, 0.000, 0.000, 0.000, 14:10:26.933, 1554495026933
80, 135.29, -591.63, 11326.57, 811.25, 0.000, 0.000, 0.000, 14:10:26.933, 1554495026933
81, 900.16, -58.65, 11032.10, 872.21, 0.000, 0.000, 0.000, 14:10:26.949, 1554495026949
82, 304.70, -214.17, 11873.58, 776.22, 0.000, 0.000, 0.000, 14:10:26.949, 1554495026949
83, -17.53, -648.88, 11770.45, 542.34, 0.000, 0.000, 0.000, 14:10:26.951, 1554495026951
84, 727.81, -260.08, 11763.55, 623.92, 0.000, 0.000, 0.000, 14:10:26.951, 1554495026951
85, 666.94, -11.75, 12541.05, 285.04, 0.000, 0.000, 0.000, 14:10:26.979, 1554495026979
86, -67.35, -613.24, 12221.76, -605.03, 0.000, 0.000, 0.000, 14:10:26.979, 1554495026979
87, 449.98, -461.65, 11882.03, 214.03, 0.000, 0.000, 0.000, 14:10:26.996, 1554495026996
88, 961.75, 41.30, 12766.38, 699.55, 0.000, 0.000, 0.000, 14:10:26.996, 1554495026996
89, 75.89, -465.29, 13683.50, 389.91, 0.000, 0.000, 0.000, 14:10:26.997, 1554495026997
90, 218.79, -582.35, 13300.75, 803.83, 0.000, 0.000, 0.000, 14:10:26.997, 1554495026997
91, 980.85, -73.59, 13005.75, 807.70, 0.000, 0.000, 0.000, 14:10:26.998, 1554495026998
92, 387.95, -225.62, 13866.40, 719.65, 0.000, 0.000, 0.000, 14:10:26.998, 1554495026998
93, 61.29, -661.36, 13699.44, 477.54, 0.000, 0.000, 0.000, 14:10:26.999, 1554495026999
94, 807.20, -270.24, 13698.08, 597.78, 0.000, 0.000, 0.000, 14:10:26.999, 1554495026999
95, 781.83, -18.43, 14502.78, 249.31, 0.000, 0.000, 0.000, 14:10:27.009, 1554495027009
96, 18.41, -630.37, 14182.50, -662.08, 0.000, 0.000, 0.000, 14:10:27.009, 1554495027009
97, 535.65, -480.18, 13830.67, 164.27, 0.000, 0.000, 0.000, 14:10:27.040, 1554495027040
98, 1060.88, 40.09, 14738.14, 665.46, 0.000, 0.000, 0.000, 14:10:27.040, 1554495027040
99, 157.72, -466.24, 15649.34, 384.79, 0.000, 0.000, 0.000, 14:10:27.041, 1554495027041
100, 307.78, -599.89, 15265.73, 764.21, 0.000, 0.000, 0.000, 14:10:27.041, 1554495027041
101, 1088.23, -88.87, 14966.05, 1719.92, 0.000, 0.000, 0.000, 14:10:27.043, 1554495027043
102, 481.09, -234.70, 15836.35, 1673.34, 0.000, 0.000, 0.000, 14:10:27.043, 1554495027043
103, 152.40, -667.78, 15660.77, 1428.77, 0.000, 0.000, 0.000, 14:10:27.054, 1554495027054
104, 908.24, -285.28, 15652.46, 1520.72, 0.000, 0.000, 0.000, 14:10:27.054, 1554495027054
105, 872.09, -23.58, 16487.70, 1168.29, 0.000, 0.000, 0.000, 14:10:27.070, 1554495027070
106, 140.01, -638.34, 16148.21, 290.69, 0.000, 0.000, 0.000, 14:10:27.070, 1554495027070
107, 626.48, -494.58, 15830.55, 1108.38, 0.000, 0.000, 0.000, 14:10:27.071, 1554495027071
108, 1162.63, 42.00, 16714.60, 1637.26, 0.000, 0.000, 0.000, 14:10:27.071, 1554495027071
109, 240.91, -484.96, 17641.54, 1348.90, 0.000, 0.000, 0.000, 14:10:27.085, 1554495027085
110, 406.24, -610.73, 17234.99, 1714.27, 0.000, 0.000, 0.000, 14:10:27.085, 1554495027085
111, 1170.67, -93.55, 16947.68, 2692.31, 0.000, 0.000, 0.000, 14:10:27.100, 1554495027100
112, 575.65, -240.89, 17831.41, 2600.51, 0.000, 0.000, 0.000, 14:10:27.100, 1554495027100
113, 231.53, -674.63, 17643.71, 2358.01, 0.000, 0.000, 0.000, 14:10:27.101, 1554495027101
114, 977.79, -295.58, 17643.33, 2483.81, 0.000, 0.000, 0.000, 14:10:27.101, 1554495027101
115, 939.13, -36.93, 18467.20, 2133.88, 0.000, 0.000, 0.000, 14:10:27.113, 1554495027113
116, 186.69, -650.74, 18132.54, 1247.28, 0.000, 0.000, 0.000, 14:10:27.113, 1554495027113
117, 686.56, -502.31, 17770.84, 2059.52, 0.000, 0.000, 0.000, 14:10:27.129, 1554495027129
118, 1202.21, 18.23, 18690.71, 2596.98, 0.000, 0.000, 0.000, 14:10:27.129, 1554495027129
119, 308.10, -497.98, 19612.63, 2263.87, 0.000, 0.000, 0.000, 14:10:27.130, 1554495027130
120, 447.11, -626.24, 19188.94, 2637.25, 0.000, 0.000, 0.000, 14:10:27.130, 1554495027130
121, 1227.37, -102.46, 18903.93, 2669.54, 0.000, 0.000, 0.000, 14:10:27.143, 1554495027143
122, 626.95, -255.55, 19786.77, 2585.72, 0.000, 0.000, 0.000, 14:10:27.143, 1554495027143
123, 280.70, -692.96, 19631.07, 2349.51, 0.000, 0.000, 0.000, 14:10:27.159, 1554495027159
124, 1028.33, -311.07, 19602.46, 2459.86, 0.000, 0.000, 0.000, 14:10:27.159, 1554495027159
125, 962.24, -59.17, 20387.69, 2065.69, 0.000, 0.000, 0.000, 14:10:27.161, 1554495027161
126, 232.69, -661.70, 20086.84, 1206.31, 0.000, 0.000, 0.000, 14:10:27.161, 1554495027161
127, 740.28, -501.66, 19739.28, 2043.88, 0.000, 0.000, 0.000, 14:10:27.173, 1554495027173
128, 1246.90, 8.70, 20659.66, 2569.82, 0.000, 0.000, 0.000, 14:10:27.173, 1554495027173
129, 346.36, -514.46, 21574.70, 2256.52, 0.000, 0.000, 0.000, 14:10:27.189, 1554495027189
130, 494.73, -635.40, 21171.25, 2669.59, 0.000, 0.000, 0.000, 14:10:27.189, 1554495027189
131, 1272.14, -114.87, 20851.62, 2676.21, 0.000, 0.000, 0.000, 14:10:27.190, 1554495027190
132, 644.22, -264.12, 21748.51, 2584.11, 0.000, 0.000, 0.000, 14:10:27.190, 1554495027190
133, 317.52, -691.48, 21571.21, 2340.70, 0.000, 0.000, 0.000, 14:10:27.203, 1554495027203
134, 1053.78, -306.92, 20594.64, 2445.92, 0.000, 0.000, 0.000, 14:10:27.203, 1554495027203
135, 1016.85, -52.91, 21425.44, 2086.19, 0.000, 0.000, 0.000, 14:10:27.251, 1554495027251
136, 267.96, -668.91, 21090.35, 1192.37, 0.000, 0.000, 0.000, 14:10:27.251, 1554495027251
137, 767.12, -515.09, 20713.90, 2028.15, 0.000, 0.000, 0.000, 14:10:27.252, 1554495027252
138, 1273.05, 8.14, 21626.71, 2528.55, 0.000, 0.000, 0.000, 14:10:27.252, 1554495027252
139, 370.05, -514.64, 22555.18, 2244.98, 0.000, 0.000, 0.000, 14:10:27.253, 1554495027253
140, 495.89, -651.73, 22143.16, 2626.13, 0.000, 0.000, 0.000, 14:10:27.253, 1554495027253
141, 1276.31, -122.29, 21846.29, 2661.12, 0.000, 0.000, 0.000, 14:10:27.254, 1554495027254
142, 664.11, -268.83, 22762.10, 2579.52, 0.000, 0.000, 0.000, 14:10:27.254, 1554495027254
143, 331.09, -705.33, 22563.10, 2318.58, 0.000, 0.000, 0.000, 14:10:27.264, 1554495027264
144, 1079.69, -322.88, 22557.06, 2399.39, 0.000, 0.000, 0.000, 14:10:27.264, 1554495027264
145, 1023.36, -61.13, 23357.75, 2051.77, 0.000, 0.000, 0.000, 14:10:27.266, 1554495027266
146, 264.62, -684.33, 23024.13, 1174.57, 0.000, 0.000, 0.000, 14:10:27.266, 1554495027266
147, 760.25, -533.77, 22693.76, 2011.92, 0.000, 0.000, 0.000, 14:10:27.279, 1554495027279
148, 1273.91, -5.91, 23594.42, 2515.47, 0.000, 0.000, 0.000, 14:10:27.279, 1554495027279
149, 384.02, -528.81, 24518.79, 2194.66, 0.000, 0.000, 0.000, 14:10:27.280, 1554495027280
150, 535.99, -664.46, 24095.77, 2603.46, 0.000, 0.000, 0.000, 14:10:27.280, 1554495027280
151, 1294.56, -142.92, 23825.73, 2653.29, 0.000, 0.000, 0.000, 14:10:27.293, 1554495027293
152, 669.39, -286.58, 24680.68, 2558.68, 0.000, 0.000, 0.000, 14:10:27.293, 1554495027293
153, 338.20, -719.08, 24531.79, 2299.95, 0.000, 0.000, 0.000, 14:10:27.354, 1554495027354
154, 1081.03, -341.17, 24526.18, 2431.00, 0.000, 0.000, 0.000, 14:10:27.354, 1554495027354
155, 1050.79, -76.50, 25367.14, 2045.29, 0.000, 0.000, 0.000, 14:10:27.371, 1554495027371
156, 265.79, -688.54, 25017.82, 1160.08, 0.000, 0.000, 0.000, 14:10:27.371, 1554495027371
157, 797.57, -531.67, 24662.51, 2017.42, 0.000, 0.000, 0.000, 14:10:27.372, 1554495027372
158, 1330.52, -7.08, 25568.97, 2534.05, 0.000, 0.000, 0.000, 14:10:27.372, 1554495027372
159, 399.65, -527.30, 26477.16, 2199.83, 0.000, 0.000, 0.000, 14:10:27.374, 1554495027374
160, 534.53, -663.47, 26064.70, 2608.60, 0.000, 0.000, 0.000, 14:10:27.374, 1554495027374
161, 1299.43, -146.27, 25786.55, 2642.65, 0.000, 0.000, 0.000, 14:10:27.374, 1554495027374
162, 707.07, -274.64, 26664.98, 2559.58, 0.000, 0.000, 0.000, 14:10:27.374, 1554495027374
163, 382.91, -704.62, 26516.98, 2312.75, 0.000, 0.000, 0.000, 14:10:27.386, 1554495027386
164, 1112.65, -333.61, 26477.74, 2421.93, 0.000, 0.000, 0.000, 14:10:27.386, 1554495027386
165, 1080.32, -62.42, 27343.51, 2095.07, 0.000, 0.000, 0.000, 14:10:27.388, 1554495027388
166, 317.35, -678.19, 26986.70, 1206.93, 0.000, 0.000, 0.000, 14:10:27.388, 1554495027388
167, 801.26, -539.75, 26603.42, 2024.79, 0.000, 0.000, 0.000, 14:10:27.388, 1554495027388
168, 1309.15, -8.20, 27511.15, 2519.62, 0.000, 0.000, 0.000, 14:10:27.388, 1554495027388
169, 426.51, -517.79, 28430.45, 2193.56, 0.000, 0.000, 0.000, 14:10:27.389, 1554495027389
170, 578.74, -651.74, 28036.89, 2591.85, 0.000, 0.000, 0.000, 14:10:27.389, 1554495027389
171, 1336.22, -139.25, 27722.49, 2682.68, 0.000, 0.000, 0.000, 14:10:27.399, 1554495027399
172, 731.40, -265.40, 28641.05, 2607.53, 0.000, 0.000, 0.000, 14:10:27.399, 1554495027399
173, 394.41, -710.12, 28438.57, 2343.54, 0.000, 0.000, 0.000, 14:10:27.401, 1554495027401
174, 1152.16, -323.20, 28424.79, 2443.65, 0.000, 0.000, 0.000, 14:10:27.401, 1554495027401
175, 1092.13, -67.18, 29289.90, 2110.85, 0.000, 0.000, 0.000, 14:10:27.414, 1554495027414
176, 349.23, -669.70, 28938.27, 1237.34, 0.000, 0.000, 0.000, 14:10:27.414, 1554495027414
177, 821.99, -535.56, 28563.07, 2036.44, 0.000, 0.000, 0.000, 14:10:27.462, 1554495027462
178, 1341.48, -10.76, 29472.93, 2528.79, 0.000, 0.000, 0.000, 14:10:27.462, 1554495027462
179, 440.76, -514.82, 30405.61, 2227.69, 0.000, 0.000, 0.000, 14:10:27.463, 1554495027463
180, 586.83, -640.96, 29997.41, 2597.16, 0.000, 0.000, 0.000, 14:10:27.463, 1554495027463
181, 1356.00, -138.65, 29685.78, 2654.66, 0.000, 0.000, 0.000, 14:10:27.463, 1554495027463
182, 739.56, -283.67, 30569.22, 2596.69, 0.000, 0.000, 0.000, 14:10:27.463, 1554495027463
183, 416.97, -707.31, 30417.68, 2340.98, 0.000, 0.000, 0.000, 14:10:27.466, 1554495027466
184, 1142.67, -326.24, 30388.84, 2434.81, 0.000, 0.000, 0.000, 14:10:27.466, 1554495027466
185, 1096.42, -64.22, 31219.43, 2060.67, 0.000, 0.000, 0.000, 14:10:27.474, 1554495027474
186, 342.69, -666.50, 30899.71, 1216.21, 0.000, 0.000, 0.000, 14:10:27.474, 1554495027474
187, 834.67, -529.09, 30545.84, 2053.27, 0.000, 0.000, 0.000, 14:10:27.476, 1554495027476
188, 1336.71, -16.50, 31430.47, 2549.24, 0.000, 0.000, 0.000, 14:10:27.476, 1554495027476
189, 450.70, -527.21, 32359.48, 2222.69, 0.000, 0.000, 0.000, 14:10:27.489, 1554495027489
190, 581.87, -665.39, 31957.80, 2616.45, 0.000, 0.000, 0.000, 14:10:27.489, 1554495027489
191, 1334.85, -155.41, 31649.21, 2644.18, 0.000, 0.000, 0.000, 14:10:27.490, 1554495027490
192, 726.01, -289.48, 32522.61, 2545.45, 0.000, 0.000, 0.000, 14:10:27.490, 1554495027490
193, 388.44, -726.82, 32354.85, 2299.00, 0.000, 0.000, 0.000, 14:10:27.503, 1554495027503
194, 1128.82, -360.82, 31375.60, 2411.46, 0.000, 0.000, 0.000, 14:10:27.503, 1554495027503
195, 1100.19, -79.53, 32207.51, 2088.24, 0.000, 0.000, 0.000, 14:10:27.549, 1554495027549
196, 330.65, -685.70, 31889.21, 1194.94, 0.000, 0.000, 0.000, 14:10:27.549, 1554495027549
197, 820.72, -534.40, 31524.58, 2016.88, 0.000, 0.000, 0.000, 14:10:27.565, 1554495027565
198, 1327.77, 2.76, 32434.28, 2527.36, 0.000, 0.000, 0.000, 14:10:27.565, 1554495027565
199, 447.00, -508.23, 33326.00, 2176.85, 0.000, 0.000, 0.000, 14:10:27.567, 1554495027567
200, 581.26, -641.89, 32932.34, 2591.56, 0.000, 0.000, 0.000, 14:10:27.567, 1554495027567
0, 1348.30, -130.09, -674.42, 706.38, 0.000, 0.000, 0.000, 14:10:27.582, 1554495027582
1, 724.84, -295.55, 176.03, 593.58, 0.000, 0.000, 0.000, 14:10:27.583, 1554495027583
2, 395.18, -728.98, 32.13, 361.56, 0.000, 0.000, 0.000, 14:10:27.583, 1554495027583
3, 1126.90, -346.18, 12.37, 467.00, 0.000, 0.000, 0.000, 14:10:27.583, 1554495027583
4, 1081.75, -81.77, 844.74, 149.37, 0.000, 0.000, 0.000, 14:10:27.583, 1554495027583
5, 338.48, -686.56, 507.69, -779.74, 0.000, 0.000, 0.000, 14:10:27.585, 1554495027585
6, 822.85, -530.55, 153.37, 54.65, 0.000, 0.000, 0.000, 14:10:27.585, 1554495027585
7, 1354.80, -6.20, 1061.73, 599.11, 0.000, 0.000, 0.000, 14:10:27.595, 1554495027595
8, 436.90, -518.38, 1954.29, 227.80, 0.000, 0.000, 0.000, 14:10:27.595, 1554495027595
9, 588.09, -654.08, 1559.19, 659.18, 0.000, 0.000, 0.000, 14:10:27.596, 1554495027596
10, 1349.18, -138.57, 1256.78, 685.83, 0.000, 0.000, 0.000, 14:10:27.596, 1554495027596
11, 727.09, -284.55, 2163.64, 610.90, 0.000, 0.000, 0.000, 14:10:27.596, 1554495027596
12, 403.43, -715.44, 1962.82, 350.40, 0.000, 0.000, 0.000, 14:10:27.596, 1554495027596
13, 1134.99, -336.18, 1945.15, 439.34, 0.000, 0.000, 0.000, 14:10:27.608, 1554495027608
14, 1081.72, -75.67, 2784.98, 124.54, 0.000, 0.000, 0.000, 14:10:27.608, 1554495027608
15, 340.69, -667.73, 2460.19, -743.71, 0.000, 0.000, 0.000, 14:10:27.624, 1554495027624
16, 827.53, -536.81, 2108.91, 75.25, 0.000, 0.000, 0.000, 14:10:27.624, 1554495027624
17, 1349.75, -10.77, 2993.92, 561.95, 0.000, 0.000, 0.000, 14:10:27.626, 1554495027626
18, 447.82, -525.21, 3897.95, 261.87, 0.000, 0.000, 0.000, 14:10:27.626, 1554495027626
19, 578.46, -652.67, 3520.58, 631.63, 0.000, 0.000, 0.000, 14:10:27.638, 1554495027638
20, 1339.54, -133.35, 3224.22, 689.66, 0.000, 0.000, 0.000, 14:10:27.638, 1554495027638
21, 725.39, -267.33, 4126.78, 615.31, 0.000, 0.000, 0.000, 14:10:27.654, 1554495027654
22, 417.49, -700.70, 3939.69, 353.60, 0.000, 0.000, 0.000, 14:10:27.654, 1554495027654
23, 1149.62, -330.67, 3932.74, 468.32, 0.000, 0.000, 0.000, 14:10:27.655, 1554495027655
24, 1084.22, -61.96, 4750.47, 108.20, 0.000, 0.000, 0.000, 14:10:27.655, 1554495027655
25, 341.56, -675.07, 4430.68, -771.68, 0.000, 0.000, 0.000, 14:10:27.668, 1554495027668
26, 824.31, -519.86, 4082.58, 79.99, 0.000, 0.000, 0.000, 14:10:27.668, 1554495027668
27, 1334.47, -3.87, 4956.96, 534.59, 0.000, 0.000, 0.000, 14:10:27.684, 1554495027684
28, 446.23, -512.20, 5884.41, 263.78, 0.000, 0.000, 0.000, 14:10:27.684, 1554495027684
29, 585.26, -653.76, 5496.44, 641.45, 0.000, 0.000, 0.000, 14:10:27.686, 1554495027686
30, 1352.71, -138.29, 5191.16, 683.99, 0.000, 0.000, 0.000, 14:10:27.686, 1554495027686
31, 744.06, -280.30, 6082.01, 594.01, 0.000, 0.000, 0.000, 14:10:27.698, 1554495027698
32, 411.43, -711.59, 5905.04, 361.66, 0.000, 0.000, 0.000, 14:10:27.698, 1554495027698
33, 1146.54, -336.64, 5898.28, 464.53, 0.000, 0.000, 0.000, 14:10:27.714, 1554495027714
34, 1109.28, -66.65, 6721.69, 118.85, 0.000, 0.000, 0.000, 14:10:27.714, 1554495027714
35, 372.81, -663.19, 6392.70, -784.90, 0.000, 0.000, 0.000, 14:10:27.715, 1554495027715
36, 831.37, -521.94, 6022.47, 52.07, 0.000, 0.000, 0.000, 14:10:27.715, 1554495027715
37, 1368.15, 2.63, 6919.81, 562.73, 0.000, 0.000, 0.000, 14:10:27.728, 1554495027728
38, 471.65, -503.65, 7861.38, 264.33, 0.000, 0.000, 0.000, 14:10:27.728, 1554495027728
39, 579.37, -652.06, 7427.99, 673.36, 0.000, 0.000, 0.000, 14:10:27.791, 1554495027791
40, 1352.60, -139.83, 7127.97, 674.21, 0.000, 0.000, 0.000, 14:10:27.791, 1554495027791
41, 759.73, -259.23, 8046.50, 597.19, 0.000, 0.000, 0.000, 14:10:27.793, 1554495027793
42, 425.38, -700.86, 7868.75, 378.15, 0.000, 0.000, 0.000, 14:10:27.793, 1554495027793
43, 1158.61, -329.71, 7832.86, 445.78, 0.000, 0.000, 0.000, 14:10:27.794, 1554495027794
44, 1093.26, -61.46, 8661.22, 71.74, 0.000, 0.000, 0.000, 14:10:27.794, 1554495027794
45, 350.39, -655.86, 8340.35, -740.26, 0.000, 0.000, 0.000, 14:10:27.807, 1554495027807
46, 852.10, -525.16, 7986.70, 95.29, 0.000, 0.000, 0.000, 14:10:27.807, 1554495027807
47, 1375.54, -5.72, 8888.28, 572.38, 0.000, 0.000, 0.000, 14:10:27.808, 1554495027808
48, 458.06, -506.17, 9815.73, 255.11, 0.000, 0.000, 0.000, 14:10:27.808, 1554495027808
49, 613.75, -641.85, 9400.94, 671.55, 0.000, 0.000, 0.000, 14:10:27.808, 1554495027808
50, 1365.26, -135.18, 9093.27, 674.52, 0.000, 0.000, 0.000, 14:10:27.808, 1554495027808
51, 743.89, -261.29, 9982.73, 603.49, 0.000, 0.000, 0.000, 14:10:27.810, 1554495027810
52, 416.00, -706.94, 9823.66, 354.90, 0.000, 0.000, 0.000, 14:10:27.810, 1554495027810
53, 1151.06, -344.10, 9809.02, 450.25, 0.000, 0.000, 0.000, 14:10:27.819, 1554495027819
54, 1089.61, -74.78, 10631.37, 137.04, 0.000, 0.000, 0.000, 14:10:27.819, 1554495027819
55, 342.24, -669.64, 10300.14, -776.38, 0.000, 0.000, 0.000, 14:10:27.821, 1554495027821
56, 848.27, -541.64, 9938.64, 31.97, 0.000, 0.000, 0.000, 14:10:27.821, 1554495027821
57, 1369.84, -10.49, 10850.00, 581.61, 0.000, 0.000, 0.000, 14:10:27.834, 1554495027834
58, 483.39, -506.02, 11795.35, 294.23, 0.000, 0.000, 0.000, 14:10:27.834, 1554495027834
59, 574.25, -657.88, 11361.03, 665.26, 0.000, 0.000, 0.000, 14:10:27.836, 1554495027836
60, 1355.12, -149.16, 11057.69, 1631.46, 0.000, 0.000, 0.000, 14:10:27.836, 1554495027836
61, 756.42, -269.14, 11970.94, 1589.25, 0.000, 0.000, 0.000, 14:10:27.849, 1554495027849
62, 416.99, -712.07, 11782.80, 1364.43, 0.000, 0.000, 0.000, 14:10:27.849, 1554495027849
63, 1140.52, -341.70, 11770.87, 1456.09, 0.000, 0.000, 0.000, 14:10:27.863, 1554495027863
64, 1082.94, -73.75, 12620.39, 1127.41, 0.000, 0.000, 0.000, 14:10:27.863, 1554495027863
65, 343.21, -673.83, 12291.49, 221.86, 0.000, 0.000, 0.000, 14:10:27.895, 1554495027895
66, 843.85, -532.80, 11897.28, 1048.48, 0.000, 0.000, 0.000, 14:10:27.895, 1554495027895
67, 1341.88, -17.87, 12787.20, 1507.21, 0.000, 0.000, 0.000, 14:10:27.896, 1554495027896
68, 465.67, -506.90, 13740.01, 1244.25, 0.000, 0.000, 0.000, 14:10:27.896, 1554495027896
69, 597.37, -654.11, 13324.74, 1646.28, 0.000, 0.000, 0.000, 14:10:27.897, 1554495027897
70, 1360.73, -148.76, 13026.38, 1676.92, 0.000, 0.000, 0.000, 14:10:27.897, 1554495027897
71, 760.28, -267.48, 13945.27, 1624.46, 0.000, 0.000, 0.000, 14:10:27.898, 1554495027898
72, 434.00, -719.44, 13745.71, 1378.52, 0.000, 0.000, 0.000, 14:10:27.898, 1554495027898
73, 1151.07, -348.45, 13738.63, 1478.20, 0.000, 0.000, 0.000, 14:10:27.908, 1554495027908
74, 1136.40, -85.32, 14566.45, 1154.63, 0.000, 0.000, 0.000, 14:10:27.908, 1554495027908
75, 368.20, -678.00, 14232.52, 254.96, 0.000, 0.000, 0.000, 14:10:27.924, 1554495027924
76, 861.41, -536.40, 13888.15, 1093.44, 0.000, 0.000, 0.000, 14:10:27.924, 1554495027924
77, 1391.78, -22.69, 14771.03, 1597.60, 0.000, 0.000, 0.000, 14:10:27.925, 1554495027925
78, 495.29, -533.74, 15713.06, 1316.88, 0.000, 0.000, 0.000, 14:10:27.925, 1554495027925
79, 618.68, -666.47, 15291.39, 1673.45, 0.000, 0.000, 0.000, 14:10:27.939, 1554495027939
80, 1393.20, -169.25, 14969.25, 1719.58, 0.000, 0.000, 0.000, 14:10:27.939, 1554495027939
81, 790.74, -285.10, 15886.71, 1641.62, 0.000, 0.000, 0.000, 14:10:27.954, 1554495027954
82, 459.35, -721.21, 15730.08, 1411.65, 0.000, 0.000, 0.000, 14:10:27.954, 1554495027954
83, 1197.88, -351.14, 15690.05, 1511.46, 0.000, 0.000, 0.000, 14:10:27.955, 1554495027955
84, 1150.74, -78.06, 16508.46, 1158.20, 0.000, 0.000, 0.000, 14:10:27.955, 1554495027955
85, 427.40, -679.89, 16201.26, 313.82, 0.000, 0.000, 0.000, 14:10:27.968, 1554495027968
86, 911.06, -550.51, 15835.33, 1166.18, 0.000, 0.000, 0.000, 14:10:27.968, 1554495027968
87, 1417.80, -33.25, 16743.27, 1650.32, 0.000, 0.000, 0.000, 14:10:28.000, 1554495028000
88, 534.68, -534.46, 17682.77, 1332.86, 0.000, 0.000, 0.000, 14:10:28.000, 1554495028000
89, 668.39, -669.24, 17287.41, 1719.15, 0.000, 0.000, 0.000, 14:10:28.002, 1554495028002
90, 1446.05, -160.67, 16966.39, 1785.30, 0.000, 0.000, 0.000, 14:10:28.002, 1554495028002
91, 846.66, -302.52, 17868.69, 1720.60, 0.000, 0.000, 0.000, 14:10:28.031, 1554495028031
92, 507.73, -733.27, 17721.78, 1475.72, 0.000, 0.000, 0.000, 14:10:28.031, 1554495028031
93, 1220.04, -373.57, 17685.61, 1560.14, 0.000, 0.000, 0.000, 14:10:28.032, 1554495028032
94, 1182.55, -94.28, 18532.13, 1254.57, 0.000, 0.000, 0.000, 14:10:28.032, 1554495028032
95, 466.67, -697.25, 18200.42, 349.88, 0.000, 0.000, 0.000, 14:10:28.033, 1554495028033
96, 946.08, -566.02, 17827.67, 1146.15, 0.000, 0.000, 0.000, 14:10:28.033, 1554495028033
97, 1451.55, -51.43, 18746.15, 1685.97, 0.000, 0.000, 0.000, 14:10:28.034, 1554495028034
98, 549.25, -551.43, 19661.87, 1340.31, 0.000, 0.000, 0.000, 14:10:28.034, 1554495028034
99, 665.49, -694.86, 19247.83, 1720.83, 0.000, 0.000, 0.000, 14:10:28.044, 1554495028044
100, 1431.24, -190.69, 18900.72, 1733.61, 0.000, 0.000, 0.000, 14:10:28.044, 1554495028044
101, 818.76, -318.35, 19842.13, 1695.20, 0.000, 0.000, 0.000, 14:10:28.046, 1554495028046
102, 490.55, -744.23, 19687.33, 1468.30, 0.000, 0.000, 0.000, 14:10:28.046, 1554495028046
103, 1223.95, -367.00, 19650.34, 1551.76, 0.000, 0.000, 0.000, 14:10:28.059, 1554495028059
104, 1164.71, -96.61, 20512.09, 1227.31, 0.000, 0.000, 0.000, 14:10:28.059, 1554495028059
105, 394.21, -697.37, 20167.10, 281.61, 0.000, 0.000, 0.000, 14:10:28.074, 1554495028074
106, 875.82, -568.04, 19767.90, 1100.67, 0.000, 0.000, 0.000, 14:10:28.074, 1554495028074
107, 1385.80, -45.57, 20682.50, 1627.53, 0.000, 0.000, 0.000, 14:10:28.076, 1554495028076
108, 484.43, -529.60, 21618.24, 1278.74, 0.000, 0.000, 0.000, 14:10:28.076, 1554495028076
109, 604.56, -669.42, 21198.57, 1658.49, 0.000, 0.000, 0.000, 14:10:28.105, 1554495028105
110, 1365.48, -165.54, 20878.11, 1686.84, 0.000, 0.000, 0.000, 14:10:28.105, 1554495028105
111, 758.04, -283.96, 21804.54, 1589.29, 0.000, 0.000, 0.000, 14:10:28.107, 1554495028107
112, 406.24, -732.71, 21611.31, 1378.60, 0.000, 0.000, 0.000, 14:10:28.107, 1554495028107
113, 1141.59, -357.45, 21562.82, 1465.62, 0.000, 0.000, 0.000, 14:10:28.107, 1554495028107
114, 1094.52, -77.56, 22424.03, 1143.00, 0.000, 0.000, 0.000, 14:10:28.107, 1554495028107
115, 336.42, -676.91, 22101.88, 242.96, 0.000, 0.000, 0.000, 14:10:28.119, 1554495028119
116, 823.20, -548.23, 21727.12, 1045.26, 0.000, 0.000, 0.000, 14:10:28.119, 1554495028119
117, 1305.76, -23.81, 22579.06, 1518.39, 0.000, 0.000, 0.000, 14:10:28.134, 1554495028134
118, 425.57, -500.36, 23558.79, 1216.77, 0.000, 0.000, 0.000, 14:10:28.134, 1554495028134
119, 539.75, -642.53, 23143.84, 1632.18, 0.000, 0.000, 0.000, 14:10:28.135, 1554495028135
120, 1329.00, -117.72, 22839.10, 1654.63, 0.000, 0.000, 0.000, 14:10:28.135, 1554495028135
121, 703.50, -237.12, 23736.29, 1580.02, 0.000, 0.000, 0.000, 14:10:28.149, 1554495028149
122, 363.59, -684.33, 23567.64, 1323.32, 0.000, 0.000, 0.000, 14:10:28.149, 1554495028149
123, 1110.66, -332.89, 23512.95, 1404.00, 0.000, 0.000, 0.000, 14:10:28.164, 1554495028164
124, 1076.20, -62.97, 24334.98, 1067.05, 0.000, 0.000, 0.000, 14:10:28.164, 1554495028164
125, 309.61, -664.67, 24023.57, 153.24, 0.000, 0.000, 0.000, 14:10:28.166, 1554495028166
126, 781.87, -532.01, 23643.44, 983.39, 0.000, 0.000, 0.000, 14:10:28.166, 1554495028166
127, 1307.43, 8.09, 24542.39, 1542.66, 0.000, 0.000, 0.000, 14:10:28.179, 1554495028179
128, 404.86, -497.52, 25500.89, 1237.41, 0.000, 0.000, 0.000, 14:10:28.179, 1554495028179
129, 516.55, -643.17, 25068.75, 1580.16, 0.000, 0.000, 0.000, 14:10:28.195, 1554495028195
130, 1286.38, -129.24, 24753.52, 1621.96, 0.000, 0.000, 0.000, 14:10:28.195, 1554495028195
131, 679.82, -253.13, 25685.98, 1547.48, 0.000, 0.000, 0.000, 14:10:28.196, 1554495028196
132, 334.01, -685.55, 25489.72, 1299.45, 0.000, 0.000, 0.000, 14:10:28.196, 1554495028196
133, 1093.90, -311.27, 25465.79, 1401.82, 0.000, 0.000, 0.000, 14:10:28.209, 1554495028209
134, 1042.82, -40.82, 26299.55, 1083.52, 0.000, 0.000, 0.000, 14:10:28.209, 1554495028209
135, 294.34, -646.05, 25973.46, 142.85, 0.000, 0.000, 0.000, 14:10:28.225, 1554495028225
136, 777.60, -513.41, 25618.92, 992.17, 0.000, 0.000, 0.000, 14:10:28.225, 1554495028225
137, 1293.13, 11.89, 26510.21, 1516.23, 0.000, 0.000, 0.000, 14:10:28.226, 1554495028226
138, 397.90, -473.84, 27451.71, 1193.25, 0.000, 0.000, 0.000, 14:10:28.226, 1554495028226
139, 525.64, -628.41, 27024.81, 1577.24, 0.000, 0.000, 0.000, 14:10:28.238, 1554495028238
140, 1276.34, -111.94, 26725.02, 1615.34, 0.000, 0.000, 0.000, 14:10:28.238, 1554495028238
141, 681.52, -228.63, 27629.67, 1562.38, 0.000, 0.000, 0.000, 14:10:28.255, 1554495028255
142, 336.68, -678.81, 27471.91, 1301.21, 0.000, 0.000, 0.000, 14:10:28.255, 1554495028255
143, 1080.69, -313.15, 27400.64, 1372.53, 0.000, 0.000, 0.000, 14:10:28.258, 1554495028258
144, 1042.04, -34.26, 28250.00, 1078.24, 0.000, 0.000, 0.000, 14:10:28.258, 1554495028258
145, 314.68, -626.16, 27948.17, 196.89, 0.000, 0.000, 0.000, 14:10:28.268, 1554495028268
146, 779.57, -512.48, 27568.28, 1000.30, 0.000, 0.000, 0.000, 14:10:28.268, 1554495028268
147, 1316.12, 13.56, 28460.84, 1503.63, 0.000, 0.000, 0.000, 14:10:28.284, 1554495028284
148, 409.13, -468.60, 29411.44, 1221.17, 0.000, 0.000, 0.000, 14:10:28.284, 1554495028284
149, 530.48, -614.96, 29007.44, 1612.98, 0.000, 0.000, 0.000, 14:10:28.285, 1554495028285
150, 1295.48, -115.23, 28674.21, 1643.18, 0.000, 0.000, 0.000, 14:10:28.285, 1554495028285
151, 693.60, -238.24, 29569.14, 1545.11, 0.000, 0.000, 0.000, 14:10:28.298, 1554495028298
152, 367.82, -680.01, 29391.44, 1285.94, 0.000, 0.000, 0.000, 14:10:28.298, 1554495028298
153, 1089.11, -315.88, 29362.41, 1425.58, 0.000, 0.000, 0.000, 14:10:28.362, 1554495028362
154, 1065.50, -34.99, 30214.57, 1081.04, 0.000, 0.000, 0.000, 14:10:28.362, 1554495028362
155, 290.09, -647.01, 29905.09, 165.29, 0.000, 0.000, 0.000, 14:10:28.363, 1554495028363
156, 797.74, -503.61, 29531.08, 984.91, 0.000, 0.000, 0.000, 14:10:28.363, 1554495028363
157, 1312.33, 13.38, 30423.64, 1530.77, 0.000, 0.000, 0.000, 14:10:28.363, 1554495028363
158, 408.13, -485.70, 31380.98, 1221.49, 0.000, 0.000, 0.000, 14:10:28.363, 1554495028363
159, 534.17, -619.44, 30954.92, 1590.60, 0.000, 0.000, 0.000, 14:10:28.365, 1554495028365
160, 1304.05, -119.85, 30638.35, 1599.82, 0.000, 0.000, 0.000, 14:10:28.365, 1554495028365
161, 714.79, -237.87, 31544.66, 1560.67, 0.000, 0.000, 0.000, 14:10:28.375, 1554495028375
162, 362.38, -683.12, 31392.52, 1294.94, 0.000, 0.000, 0.000, 14:10:28.375, 1554495028375
163, 1094.84, -322.66, 31354.94, 1397.35, 0.000, 0.000, 0.000, 14:10:28.377, 1554495028377
164, 1051.04, -43.98, 32193.93, 1061.10, 0.000, 0.000, 0.000, 14:10:28.377, 1554495028377
165, 289.95, -642.06, 31893.93, 187.56, 0.000, 0.000, 0.000, 14:10:28.378, 1554495028378
166, 793.43, -514.74, 31496.35, 994.32, 0.000, 0.000, 0.000, 14:10:28.378, 1554495028378
167, 1306.87, 6.98, 32397.59, 1520.59, 0.000, 0.000, 0.000, 14:10:28.379, 1554495028379
168, 398.69, -486.18, 33363.69, 1176.39, 0.000, 0.000, 0.000, 14:10:28.379, 1554495028379
169, 531.02, -635.38, 32918.99, 1528.20, 0.000, 0.000, 0.000, 14:10:28.388, 1554495028388
170, 1308.17, -116.88, 32598.08, 1652.73, 0.000, 0.000, 0.000, 14:10:28.388, 1554495028388
171, 694.59, -244.83, 33544.52, 1566.81, 0.000, 0.000, 0.000, 14:10:28.404, 1554495028404
172, 352.62, -700.39, 33361.52, 1288.79, 0.000, 0.000, 0.000, 14:10:28.404, 1554495028404
173, 1083.43, -344.35, 33302.21, 1395.21, 0.000, 0.000, 0.000, 14:10:28.406, 1554495028406
174, 1060.32, -51.40, 34144.52, 1092.28, 0.000, 0.000, 0.000, 14:10:28.406, 1554495028406
175, 298.11, -664.83, 33837.99, 169.47, 0.000, 0.000, 0.000, 14:10:28.418, 1554495028418
176, 775.88, -543.63, 33449.63, 967.90, 0.000, 0.000, 0.000, 14:10:28.418, 1554495028418
177, 1314.14, -13.67, 34317.47, 1498.12, 0.000, 0.000, 0.000, 14:10:28.434, 1554495028434
178, 421.40, -513.15, 34333.73, 1179.03, 0.000, 0.000, 0.000, 14:10:28.434, 1554495028434
179, 526.12, -658.82, 33914.00, 1576.99, 0.000, 0.000, 0.000, 14:10:28.436, 1554495028436
180, 1298.85, -148.76, 33574.70, 1605.19, 0.000, 0.000, 0.000, 14:10:28.436, 1554495028436
181, 728.43, -263.94, 34506.32, 1558.35, 0.000, 0.000, 0.000, 14:10:28.449, 1554495028449
182, 383.45, -706.38, 34341.31, 1292.44, 0.000, 0.000, 0.000, 14:10:28.449, 1554495028449
183, 1098.92, -345.86, 34285.16, 1409.30, 0.000, 0.000, 0.000, 14:10:28.464, 1554495028464
184, 1055.03, -68.79, 35124.49, 1072.61, 0.000, 0.000, 0.000, 14:10:28.464, 1554495028464
185, 310.50, -666.15, 34828.31, 185.25, 0.000, 0.000, 0.000, 14:10:28.465, 1554495028465
186, 811.15, -520.26, 34443.87, 1001.09, 0.000, 0.000, 0.000, 14:10:28.465, 1554495028465
187, 1315.82, -5.03, 35317.54, 1528.61, 0.000, 0.000, 0.000, 14:10:28.479, 1554495028479
188, 420.39, -505.08, 36294.52, 1213.31, 0.000, 0.000, 0.000, 14:10:28.479, 1554495028479
189, 537.89, -648.75, 35875.85, 1584.84, 0.000, 0.000, 0.000, 14:10:28.494, 1554495028494
190, 1321.18, -140.31, 35543.81, 1597.90, 0.000, 0.000, 0.000, 14:10:28.494, 1554495028494
191, 702.43, -262.99, 36450.48, 1519.02, 0.000, 0.000, 0.000, 14:10:28.496, 1554495028496
192, 365.86, -720.34, 36300.67, 1301.47, 0.000, 0.000, 0.000, 14:10:28.496, 1554495028496
193, 1090.24, -339.27, 36261.75, 1408.75, 0.000, 0.000, 0.000, 14:10:28.509, 1554495028509
194, 1053.97, -65.91, 37078.27, 1075.36, 0.000, 0.000, 0.000, 14:10:28.509, 1554495028509
195, 321.24, -661.29, 36801.84, 183.45, 0.000, 0.000, 0.000, 14:10:28.524, 1554495028524
196, 790.07, -539.49, 36396.38, 976.06, 0.000, 0.000, 0.000, 14:10:28.524, 1554495028524
197, 1319.89, -13.32, 37267.66, 1538.02, 0.000, 0.000, 0.000, 14:10:28.526, 1554495028526
198, 422.02, -514.86, 37273.87, 1215.44, 0.000, 0.000, 0.000, 14:10:28.526, 1554495028526
199, 530.67, -673.39, 36820.65, 1582.91, 0.000, 0.000, 0.000, 14:10:28.556, 1554495028556
200, 1316.26, -143.46, 36528.20, 1605.49, 0.000, 0.000, 0.000, 14:10:28.556, 1554495028556
0, 703.40, -266.47, 1181.47, -409.50, 0.000, 0.000, 0.000, 14:10:28.557, 1554495028557
1, 390.76, -700.63, 1031.78, -651.42, 0.000, 0.000, 0.000, 14:10:28.558, 1554495028558
2, 1104.31, -342.91, 955.06, -566.02, 0.000, 0.000, 0.000, 14:10:28.558, 1554495028558
3, 1076.38, -62.47, 1822.94, -883.81, 0.000, 0.000, 0.000, 14:10:28.559, 1554495028559
4, 316.26, -673.67, 1494.38, -1784.06, 0.000, 0.000, 0.000, 14:10:28.559, 1554495028559
5, 787.20, -554.82, 1122.27, -950.17, 0.000, 0.000, 0.000, 14:10:28.585, 1554495028585
6, 1321.51, -19.80, 1975.20, -431.89, 0.000, 0.000, 0.000, 14:10:28.585, 1554495028585
7, 424.14, -512.45, 2952.59, -729.56, 0.000, 0.000, 0.000, 14:10:28.588, 1554495028588
8, 540.08, -660.44, 2532.53, -376.57, 0.000, 0.000, 0.000, 14:10:28.588, 1554495028588
9, 1307.76, -147.00, 2210.40, -340.69, 0.000, 0.000, 0.000, 14:10:28.599, 1554495028599
10, 723.89, -268.81, 3139.31, -403.04, 0.000, 0.000, 0.000, 14:10:28.599, 1554495028599
11, 360.43, -719.15, 2957.18, -662.30, 0.000, 0.000, 0.000, 14:10:28.600, 1554495028600
12, 1104.16, -342.41, 2923.60, -555.75, 0.000, 0.000, 0.000, 14:10:28.600, 1554495028600
13, 1078.13, -64.06, 3751.53, -894.38, 0.000, 0.000, 0.000, 14:10:28.613, 1554495028613
14, 320.23, -676.29, 3443.02, -1789.99, 0.000, 0.000, 0.000, 14:10:28.613, 1554495028613
15, 813.62, -538.03, 3081.46, -969.86, 0.000, 0.000, 0.000, 14:10:28.661, 1554495028661
16, 1319.82, -16.24, 3960.51, -437.08, 0.000, 0.000, 0.000, 14:10:28.661, 1554495028661
17, 424.25, -513.49, 4926.57, -759.18, 0.000, 0.000, 0.000, 14:10:28.662, 1554495028662
18, 529.93, -666.93, 4491.48, -363.92, 0.000, 0.000, 0.000, 14:10:28.662, 1554495028662
19, 1320.38, -135.64, 4179.76, -343.14, 0.000, 0.000, 0.000, 14:10:28.663, 1554495028663
20, 720.38, -253.42, 5106.53, -393.04, 0.000, 0.000, 0.000, 14:10:28.663, 1554495028663
21, 361.39, -713.82, 4933.04, -657.32, 0.000, 0.000, 0.000, 14:10:28.663, 1554495028663
22, 1091.93, -345.08, 4883.01, -530.16, 0.000, 0.000, 0.000, 14:10:28.663, 1554495028663
23, 1080.20, -63.49, 5694.14, -860.25, 0.000, 0.000, 0.000, 14:10:28.674, 1554495028674
24, 319.31, -674.21, 5422.93, -1785.02, 0.000, 0.000, 0.000, 14:10:28.674, 1554495028674
25, 804.86, -544.86, 5037.51, -978.69, 0.000, 0.000, 0.000, 14:10:28.675, 1554495028675
26, 1320.49, -11.86, 5926.83, -441.48, 0.000, 0.000, 0.000, 14:10:28.675, 1554495028675
27, 430.90, -499.24, 6900.19, -757.27, 0.000, 0.000, 0.000, 14:10:28.689, 1554495028689
28, 556.49, -656.58, 6449.54, -373.89, 0.000, 0.000, 0.000, 14:10:28.689, 1554495028689
29, 1310.50, -150.15, 6128.60, -309.71, 0.000, 0.000, 0.000, 14:10:28.690, 1554495028690
30, 736.19, -261.03, 7062.54, -361.91, 0.000, 0.000, 0.000, 14:10:28.690, 1554495028690
31, 370.43, -713.32, 6883.60, -650.03, 0.000, 0.000, 0.000, 14:10:28.703, 1554495028703
32, 1101.96, -345.28, 6851.87, -536.42, 0.000, 0.000, 0.000, 14:10:28.703, 1554495028703
33, 1071.67, -62.04, 7675.56, -856.18, 0.000, 0.000, 0.000, 14:10:28.719, 1554495028719
34, 308.98, -673.39, 7360.67, -1783.08, 0.000, 0.000, 0.000, 14:10:28.719, 1554495028719
35, 809.17, -532.46, 6976.42, -953.73, 0.000, 0.000, 0.000, 14:10:28.720, 1554495028720
36, 1327.53, -4.03, 7860.86, -444.23, 0.000, 0.000, 0.000, 14:10:28.720, 1554495028720
37, 422.44, -507.18, 8838.81, -732.98, 0.000, 0.000, 0.000, 14:10:28.733, 1554495028733
38, 553.57, -649.48, 8420.56, -357.21, 0.000, 0.000, 0.000, 14:10:28.733, 1554495028733
39, 1311.53, -137.96, 8101.97, -339.16, 0.000, 0.000, 0.000, 14:10:28.749, 1554495028749
40, 718.09, -234.78, 9017.33, -397.91, 0.000, 0.000, 0.000, 14:10:28.749, 1554495028749
41, 367.28, -690.06, 8867.01, -622.18, 0.000, 0.000, 0.000, 14:10:28.751, 1554495028751
42, 1095.01, -317.53, 8801.95, -550.81, 0.000, 0.000, 0.000, 14:10:28.751, 1554495028751
43, 1074.49, -38.64, 9656.39, -854.76, 0.000, 0.000, 0.000, 14:10:28.780, 1554495028780
44, 315.22, -655.48, 9330.53, -1788.96, 0.000, 0.000, 0.000, 14:10:28.780, 1554495028780
45, 805.77, -539.82, 8947.36, -942.14, 0.000, 0.000, 0.000, 14:10:28.797, 1554495028797
46, 1306.15, -18.09, 9835.04, -398.21, 0.000, 0.000, 0.000, 14:10:28.797, 1554495028797
47, 424.55, -506.77, 10811.73, -750.99, 0.000, 0.000, 0.000, 14:10:28.798, 1554495028798
48, 543.99, -654.73, 10395.15, -369.35, 0.000, 0.000, 0.000, 14:10:28.798, 1554495028798
49, 1309.02, -143.37, 10057.46, -293.39, 0.000, 0.000, 0.000, 14:10:28.799, 1554495028799
50, 728.33, -259.65, 10961.38, -365.81, 0.000, 0.000, 0.000, 14:10:28.799, 1554495028799
51, 372.89, -710.91, 10808.53, -669.42, 0.000, 0.000, 0.000, 14:10:28.809, 1554495028809
52, 1107.93, -341.30, 10760.45, -541.50, 0.000, 0.000, 0.000, 14:10:28.809, 1554495028809
53, 1082.07, -56.99, 11590.81, -839.33, 0.000, 0.000, 0.000, 14:10:28.810, 1554495028810
54, 307.98, -665.12, 11278.40, -1788.91, 0.000, 0.000, 0.000, 14:10:28.810, 1554495028810
55, 808.39, -540.71, 10915.21, -950.45, 0.000, 0.000, 0.000, 14:10:28.824, 1554495028824
56, 1328.71, -6.19, 11802.92, -398.86, 0.000, 0.000, 0.000, 14:10:28.824, 1554495028824
57, 417.57, -508.32, 12777.96, -730.37, 0.000, 0.000, 0.000, 14:10:28.839, 1554495028839
58, 542.42, -655.77, 12342.53, -349.00, 0.000, 0.000, 0.000, 14:10:28.839, 1554495028839
59, 1313.04, -147.25, 11999.97, -317.10, 0.000, 0.000, 0.000, 14:10:28.841, 1554495028841
60, 712.95, -264.95, 12950.06, -384.88, 0.000, 0.000, 0.000, 14:10:28.841, 1554495028841
61, 341.51, -720.03, 12780.92, -655.93, 0.000, 0.000, 0.000, 14:10:28.854, 1554495028854
62, 1087.03, -357.61, 12721.91, -562.07, 0.000, 0.000, 0.000, 14:10:28.854, 1554495028854
63, 1084.00, -52.44, 13579.92, -854.90, 0.000, 0.000, 0.000, 14:10:28.869, 1554495028869
64, 300.67, -663.28, 13270.71, -1755.96, 0.000, 0.000, 0.000, 14:10:28.869, 1554495028869
65, 783.76, -545.32, 12882.33, -938.95, 0.000, 0.000, 0.000, 14:10:28.884, 1554495028884
66, 1314.93, -22.36, 13756.40, -440.81, 0.000, 0.000, 0.000, 14:10:28.884, 1554495028884
67, 393.38, -518.63, 13758.67, -763.61, 0.000, 0.000, 0.000, 14:10:28.900, 1554495028900
68, 507.74, -672.41, 13330.96, -360.22, 0.000, 0.000, 0.000, 14:10:28.900, 1554495028900
69, 1309.09, -153.32, 12999.07, -315.28, 0.000, 0.000, 0.000, 14:10:28.901, 1554495028901
70, 715.08, -261.25, 13916.03, -371.29, 0.000, 0.000, 0.000, 14:10:28.901, 1554495028901
71, 366.62, -722.65, 13755.62, -658.30, 0.000, 0.000, 0.000, 14:10:28.914, 1554495028914
72, 1092.85, -353.65, 13715.26, -557.32, 0.000, 0.000, 0.000, 14:10:28.914, 1554495028914
73, 1074.99, -55.55, 14548.96, -877.15, 0.000, 0.000, 0.000, 14:10:28.916, 1554495028916
74, 309.77, -682.72, 14236.46, -1781.99, 0.000, 0.000, 0.000, 14:10:28.916, 1554495028916
75, 774.60, -553.36, 13865.30, -962.87, 0.000, 0.000, 0.000, 14:10:28.929, 1554495028929
76, 1325.32, -11.09, 14718.27, -409.10, 0.000, 0.000, 0.000, 14:10:28.930, 1554495028930
77, 414.12, -509.31, 14726.27, -727.72, 0.000, 0.000, 0.000, 14:10:28.931, 1554495028931
78, 528.35, -661.55, 14292.80, -375.66, 0.000, 0.000, 0.000, 14:10:28.931, 1554495028931
79, 1311.69, -151.75, 13973.25, -299.94, 0.000, 0.000, 0.000, 14:10:28.944, 1554495028944
80, 719.10, -267.69, 14890.25, -407.90, 0.000, 0.000, 0.000, 14:10:28.944, 1554495028944
81, 380.29, -706.30, 14744.26, -671.02, 0.000, 0.000, 0.000, 14:10:28.960, 1554495028960
82, 1110.59, -354.60, 14702.26, -537.50, 0.000, 0.000, 0.000, 14:10:28.960, 1554495028960
83, 1083.28, -67.00, 15527.64, -848.51, 0.000, 0.000, 0.000, 14:10:28.961, 1554495028961
84, 306.54, -681.50, 15234.11, -1772.31, 0.000, 0.000, 0.000, 14:10:28.961, 1554495028961
85, 786.61, -556.24, 14844.87, -966.13, 0.000, 0.000, 0.000, 14:10:28.974, 1554495028974
86, 1326.38, -9.57, 15723.07, -426.38, 0.000, 0.000, 0.000, 14:10:28.974, 1554495028974
87, 424.33, -506.11, 15729.29, -729.19, 0.000, 0.000, 0.000, 14:10:28.989, 1554495028989
88, 540.27, -667.29, 15287.20, -385.67, 0.000, 0.000, 0.000, 14:10:28.989, 1554495028989
89, 1309.05, -153.00, 14957.88, -301.97, 0.000, 0.000, 0.000, 14:10:28.990, 1554495028990
90, 710.50, -280.12, 15868.90, -371.17, 0.000, 0.000, 0.000, 14:10:28.990, 1554495028990
91, 361.28, -725.60, 15718.69, -656.14, 0.000, 0.000, 0.000, 14:10:29.003, 1554495029003
92, 1102.57, -351.17, 15668.22, -561.19, 0.000, 0.000, 0.000, 14:10:29.003, 1554495029003
93, 1083.45, -68.22, 16502.35, -911.38, 0.000, 0.000, 0.000, 14:10:29.019, 1554495029019
94, 316.02, -673.94, 16214.17, -1777.14, 0.000, 0.000, 0.000, 14:10:29.019, 1554495029019
95, 787.32, -557.88, 15816.01, -957.50, 0.000, 0.000, 0.000, 14:10:29.020, 1554495029020
96, 1325.18, -19.33, 16684.20, -424.59, 0.000, 0.000, 0.000, 14:10:29.020, 1554495029020
97, 431.97, -522.49, 16709.76, -718.20, 0.000, 0.000, 0.000, 14:10:29.033, 1554495029033
98, 537.35, -670.72, 16255.08, -361.40, 0.000, 0.000, 0.000, 14:10:29.033, 1554495029033
99, 1307.30, -163.89, 15926.95, -330.59, 0.000, 0.000, 0.000, 14:10:29.049, 1554495029049
100, 706.61, -282.59, 16850.47, -356.50, 0.000, 0.000, 0.000, 14:10:29.049, 1554495029049
101, 353.84, -740.80, 16699.25, -636.18, 0.000, 0.000, 0.000, 14:10:29.050, 1554495029050
102, 1109.79, -373.65, 16650.47, -550.99, 0.000, 0.000, 0.000, 14:10:29.050, 1554495029050
103, 1079.21, -88.85, 17448.43, -882.91, 0.000, 0.000, 0.000, 14:10:29.063, 1554495029063
104, 313.19, -698.74, 17166.88, -1816.73, 0.000, 0.000, 0.000, 14:10:29.063, 1554495029063
105, 796.47, -574.35, 16800.25, -980.65, 0.000, 0.000, 0.000, 14:10:29.079, 1554495029079
106, 1327.43, -42.47, 17685.01, -389.51, 0.000, 0.000, 0.000, 14:10:29.079, 1554495029079
107, 419.61, -541.14, 18649.74, -725.03, 0.000, 0.000, 0.000, 14:10:29.081, 1554495029081
108, 545.77, -696.00, 18224.41, -365.45, 0.000, 0.000, 0.000, 14:10:29.081, 1554495029081
109, 1305.69, -189.15, 17875.92, -353.37, 0.000, 0.000, 0.000, 14:10:29.141, 1554495029141
110, 715.53, -300.18, 18818.87, -363.36, 0.000, 0.000, 0.000, 14:10:29.141, 1554495029141
111, 363.89, -739.95, 18672.59, -636.94, 0.000, 0.000, 0.000, 14:10:29.142, 1554495029142
112, 1100.79, -386.90, 18617.62, -555.93, 0.000, 0.000, 0.000, 14:10:29.142, 1554495029142
113, 1060.38, -99.56, 19448.86, -847.82, 0.000, 0.000, 0.000, 14:10:29.143, 1554495029143
114, 301.85, -704.36, 19138.85, -1787.31, 0.000, 0.000, 0.000, 14:10:29.143, 1554495029143
115, 803.42, -572.04, 18769.68, -965.40, 0.000, 0.000, 0.000, 14:10:29.144, 1554495029144
116, 1326.24, -43.95, 19603.88, -428.31, 0.000, 0.000, 0.000, 14:10:29.144, 1554495029144
117, 427.50, -537.65, 19633.74, -694.35, 0.000, 0.000, 0.000, 14:10:29.155, 1554495029155
118, 546.46, -691.94, 19192.21, -355.54, 0.000, 0.000, 0.000, 14:10:29.155, 1554495029155
119, 1315.28, -196.14, 18851.84, -344.41, 0.000, 0.000, 0.000, 14:10:29.157, 1554495029157
120, 719.53, -301.71, 19792.43, -367.46, 0.000, 0.000, 0.000, 14:10:29.157, 1554495029157
121, 364.80, -758.14, 19642.90, -647.52, 0.000, 0.000, 0.000, 14:10:29.158, 1554495029158
122, 1107.64, -393.50, 19604.42, -528.70, 0.000, 0.000, 0.000, 14:10:29.158, 1554495029158
123, 1075.54, -109.03, 20411.87, -843.63, 0.000, 0.000, 0.000, 14:10:29.158, 1554495029158
124, 305.41, -712.37, 20136.06, -1756.52, 0.000, 0.000, 0.000, 14:10:29.158, 1554495029158
125, 788.18, -580.44, 19748.61, -931.63, 0.000, 0.000, 0.000, 14:10:29.168, 1554495029168
126, 1330.11, -62.78, 20580.13, -410.70, 0.000, 0.000, 0.000, 14:10:29.168, 1554495029168
127, 435.94, -543.03, 20608.67, -750.64, 0.000, 0.000, 0.000, 14:10:29.183, 1554495029183
128, 550.38, -697.93, 20199.06, -363.35, 0.000, 0.000, 0.000, 14:10:29.183, 1554495029183
129, 1299.11, -191.38, 19858.01, -293.57, 0.000, 0.000, 0.000, 14:10:29.199, 1554495029199
130, 719.15, -303.37, 20765.13, -361.87, 0.000, 0.000, 0.000, 14:10:29.199, 1554495029199
131, 358.96, -759.13, 20600.60, -656.08, 0.000, 0.000, 0.000, 14:10:29.202, 1554495029202
132, 1095.59, -396.35, 20553.01, -544.69, 0.000, 0.000, 0.000, 14:10:29.202, 1554495029202
133, 1069.17, -109.39, 21404.73, -859.91, 0.000, 0.000, 0.000, 14:10:29.214, 1554495029214
134, 332.68, -703.49, 21108.95, -1733.66, 0.000, 0.000, 0.000, 14:10:29.214, 1554495029214
135, 801.00, -586.86, 20725.98, -948.18, 0.000, 0.000, 0.000, 14:10:29.229, 1554495029229
136, 1322.28, -55.99, 21568.31, -404.73, 0.000, 0.000, 0.000, 14:10:29.229, 1554495029229
137, 428.35, -549.27, 21595.13, -714.99, 0.000, 0.000, 0.000, 14:10:29.230, 1554495029230
138, 543.56, -707.70, 21172.38, -385.77, 0.000, 0.000, 0.000, 14:10:29.230, 1554495029230
139, 1324.79, -198.35, 20852.96, -289.34, 0.000, 0.000, 0.000, 14:10:29.244, 1554495029244
140, 732.15, -305.55, 21758.47, -356.91, 0.000, 0.000, 0.000, 14:10:29.244, 1554495029244
141, 362.89, -755.54, 21591.41, -617.92, 0.000, 0.000, 0.000, 14:10:29.259, 1554495029259
142, 1107.60, -389.20, 21548.11, -522.97, 0.000, 0.000, 0.000, 14:10:29.259, 1554495029259
143, 1045.14, -105.03, 22378.29, -867.76, 0.000, 0.000, 0.000, 14:10:29.261, 1554495029261
144, 295.59, -710.03, 22085.52, -1753.01, 0.000, 0.000, 0.000, 14:10:29.261, 1554495029261
145, 780.75, -586.55, 21716.19, -938.87, 0.000, 0.000, 0.000, 14:10:29.274, 1554495029274
146, 1308.23, -62.32, 22568.64, -408.62, 0.000, 0.000, 0.000, 14:10:29.274, 1554495029274
147, 395.26, -545.94, 23546.18, -722.50, 0.000, 0.000, 0.000, 14:10:29.289, 1554495029289
148, 524.74, -700.50, 23126.65, -327.39, 0.000, 0.000, 0.000, 14:10:29.289, 1554495029289
149, 1300.35, -199.50, 22783.07, -311.91, 0.000, 0.000, 0.000, 14:10:29.290, 1554495029290
150, 695.71, -311.63, 23723.92, -370.25, 0.000, 0.000, 0.000, 14:10:29.290, 1554495029290
151, 366.11, -750.56, 23577.87, -652.47, 0.000, 0.000, 0.000, 14:10:29.304, 1554495029304
152, 1083.80, -396.31, 23494.32, -529.18, 0.000, 0.000, 0.000, 14:10:29.304, 1554495029304
153, 1065.06, -103.54, 24323.30, -812.93, 0.000, 0.000, 0.000, 14:10:29.335, 1554495029335
154, 305.95, -718.19, 24037.87, -1720.89, 0.000, 0.000, 0.000, 14:10:29.335, 1554495029335
155, 771.27, -600.06, 23661.11, -936.48, 0.000, 0.000, 0.000, 14:10:29.336, 1554495029336
156, 1327.43, -60.05, 24509.16, -395.16, 0.000, 0.000, 0.000, 14:10:29.336, 1554495029336
157, 410.39, -552.13, 24544.48, -692.51, 0.000, 0.000, 0.000, 14:10:29.349, 1554495029349
158, 538.69, -698.87, 24131.31, -329.29, 0.000, 0.000, 0.000, 14:10:29.349, 1554495029349
159, 1309.54, -191.17, 23746.19, -290.62, 0.000, 0.000, 0.000, 14:10:29.350, 1554495029350
160, 722.01, -300.82, 24680.47, -362.76, 0.000, 0.000, 0.000, 14:10:29.350, 1554495029350
161, 372.48, -753.18, 24559.49, -638.36, 0.000, 0.000, 0.000, 14:10:29.352, 1554495029352
162, 1091.79, -390.76, 24494.92, -529.28, 0.000, 0.000, 0.000, 14:10:29.352, 1554495029352
163, 1096.20, -83.93, 25327.95, -831.14, 0.000, 0.000, 0.000, 14:10:29.363, 1554495029363
164, 327.06, -690.64, 25046.17, -1746.66, 0.000, 0.000, 0.000, 14:10:29.363, 1554495029363
165, 791.43, -574.57, 24642.96, -918.08, 0.000, 0.000, 0.000, 14:10:29.379, 1554495029379
166, 1331.73, -44.20, 25492.84, -396.24, 0.000, 0.000, 0.000, 14:10:29.379, 1554495029379
167, 428.14, -536.01, 25515.00, -718.59, 0.000, 0.000, 0.000, 14:10:29.380, 1554495029380
168, 530.47, -711.58, 25084.71, -328.40, 0.000, 0.000, 0.000, 14:10:29.380, 1554495029380
169, 1297.64, -208.45, 24743.54, -299.78, 0.000, 0.000, 0.000, 14:10:29.393, 1554495029393
170, 722.63, -310.10, 25677.16, -371.46, 0.000, 0.000, 0.000, 14:10:29.393, 1554495029393
171, 362.95, -751.70, 25539.63, -631.98, 0.000, 0.000, 0.000, 14:10:29.409, 1554495029409
172, 1084.93, -415.04, 25468.12, -523.57, 0.000, 0.000, 0.000, 14:10:29.409, 1554495029409
173, 1078.75, -121.60, 26322.94, -842.72, 0.000, 0.000, 0.000, 14:10:29.411, 1554495029411
174, 329.59, -714.06, 25998.82, -1757.30, 0.000, 0.000, 0.000, 14:10:29.411, 1554495029411
175, 798.57, -601.70, 25625.62, -936.31, 0.000, 0.000, 0.000, 14:10:29.423, 1554495029423
176, 1321.47, -78.41, 26490.02, -402.11, 0.000, 0.000, 0.000, 14:10:29.423, 1554495029423
177, 424.64, -570.35, 26504.62, -711.69, 0.000, 0.000, 0.000, 14:10:29.439, 1554495029439
178, 543.04, -709.76, 26084.18, -335.29, 0.000, 0.000, 0.000, 14:10:29.439, 1554495029439
179, 1320.92, -201.42, 25749.23, -287.39, 0.000, 0.000, 0.000, 14:10:29.440, 1554495029440
180, 737.72, -306.71, 26655.11, -343.95, 0.000, 0.000, 0.000, 14:10:29.440, 1554495029440
181, 365.26, -754.74, 26508.55, -600.46, 0.000, 0.000, 0.000, 14:10:29.469, 1554495029469
182, 1107.77, -400.34, 26453.16, -528.69, 0.000, 0.000, 0.000, 14:10:29.469, 1554495029469
183, 1093.91, -103.15, 27237.30, -798.35, 0.000, 0.000, 0.000, 14:10:29.471, 1554495029471
184, 321.62, -716.68, 26980.38, -1737.81, 0.000, 0.000, 0.000, 14:10:29.471, 1554495029471
185, 795.58, -597.12, 26610.99, -920.86, 0.000, 0.000, 0.000, 14:10:29.471, 1554495029471
186, 1318.50, -67.44, 27438.40, -395.54, 0.000, 0.000, 0.000, 14:10:29.471, 1554495029471
187, 442.56, -539.12, 27480.15, -711.79, 0.000, 0.000, 0.000, 14:10:29.483, 1554495029483
188, 548.47, -706.95, 27061.95, -351.17, 0.000, 0.000, 0.000, 14:10:29.483, 1554495029483
189, 1319.42, -192.35, 26707.28, -290.49, 0.000, 0.000, 0.000, 14:10:29.499, 1554495029499
190, 737.96, -302.94, 27620.00, -315.82, 0.000, 0.000, 0.000, 14:10:29.499, 1554495029499
191, 387.13, -762.75, 27477.43, -631.81, 0.000, 0.000, 0.000, 14:10:29.501, 1554495029501
192, 1102.89, -412.89, 27430.25, -534.51, 0.000, 0.000, 0.000, 14:10:29.501, 1554495029501
193, 1092.81, -113.02, 28249.12, -812.52, 0.000, 0.000, 0.000, 14:10:29.513, 1554495029513
194, 319.33, -725.97, 27955.22, -1738.47, 0.000, 0.000, 0.000, 14:10:29.513, 1554495029513
195, 815.90, -612.20, 27582.99, -932.51, 0.000, 0.000, 0.000, 14:10:29.529, 1554495029529
196, 1349.34, -76.16, 28431.99, -394.07, 0.000, 0.000, 0.000, 14:10:29.529, 1554495029529
197, 432.10, -558.58, 28446.01, -742.49, 0.000, 0.000, 0.000, 14:10:29.530, 1554495029530
198, 544.43, -713.38, 28054.05, -351.99, 0.000, 0.000, 0.000, 14:10:29.530, 1554495029530
199, 1337.51, -213.98, 27706.99, -307.20, 0.000, 0.000, 0.000, 14:10:29.562, 1554495029562
200, 764.62, -304.35, 28645.27, -1280.29, 0.000, 0.000, 0.000, 14:10:29.562, 1554495029562
0, 407.54, -758.59, 38.89, -627.42, 0.000, 0.000, 0.000, 14:10:29.563, 1554495029563
1, 1111.39, -409.01, -21.35, -504.67, 0.000, 0.000, 0.000, 14:10:29.563, 1554495029563
2, 1105.60, -118.79, 802.19, -815.95, 0.000, 0.000, 0.000, 14:10:29.563, 1554495029563
3, 336.98, -729.90, 524.98, -1737.03, 0.000, 0.000, 0.000, 14:10:29.574, 1554495029574
4, 814.18, -599.83, 154.85, -934.91, 0.000, 0.000, 0.000, 14:10:29.574, 1554495029574
5, 1345.40, -64.77, 969.95, -385.61, 0.000, 0.000, 0.000, 14:10:29.575, 1554495029575
6, 449.51, -539.76, 1009.80, -685.28, 0.000, 0.000, 0.000, 14:10:29.575, 1554495029575
7, 574.21, -702.79, 598.83, -359.90, 0.000, 0.000, 0.000, 14:10:29.589, 1554495029589
8, 1343.28, -199.33, 237.63, -334.98, 0.000, 0.000, 0.000, 14:10:29.589, 1554495029589
9, 771.63, -300.45, 1185.01, -1288.99, 0.000, 0.000, 0.000, 14:10:29.604, 1554495029604
10, 384.41, -766.49, 1019.40, -1588.06, 0.000, 0.000, 0.000, 14:10:29.604, 1554495029604
11, 1132.41, -400.39, 957.76, -1490.54, 0.000, 0.000, 0.000, 14:10:29.605, 1554495029605
12, 1120.27, -107.56, 1768.73, -1789.55, 0.000, 0.000, 0.000, 14:10:29.605, 1554495029605
13, 338.29, -709.47, 1499.49, -2719.34, 0.000, 0.000, 0.000, 14:10:29.619, 1554495029619
14, 812.98, -595.84, 1116.30, -1905.69, 0.000, 0.000, 0.000, 14:10:29.619, 1554495029619
15, 1374.45, -56.61, 1955.23, -1349.73, 0.000, 0.000, 0.000, 14:10:29.634, 1554495029634
16, 462.24, -544.24, 1984.57, -1712.82, 0.000, 0.000, 0.000, 14:10:29.634, 1554495029634
17, 564.83, -703.51, 1560.56, -1313.98, 0.000, 0.000, 0.000, 14:10:29.636, 1554495029636
18, 1346.56, -207.19, 1219.40, -1267.08, 0.000, 0.000, 0.000, 14:10:29.636, 1554495029636
19, 753.54, -303.62, 2154.60, -1308.87, 0.000, 0.000, 0.000, 14:10:29.665, 1554495029665
20, 407.18, -763.72, 1992.79, -1611.30, 0.000, 0.000, 0.000, 14:10:29.665, 1554495029665
21, 1137.75, -405.96, 1948.61, -1502.85, 0.000, 0.000, 0.000, 14:10:29.667, 1554495029667
22, 1117.53, -98.83, 2769.64, -1755.81, 0.000, 0.000, 0.000, 14:10:29.667, 1554495029667
23, 365.98, -696.32, 2508.02, -2680.27, 0.000, 0.000, 0.000, 14:10:29.667, 1554495029667
24, 848.36, -591.30, 2085.54, -1893.33, 0.000, 0.000, 0.000, 14:10:29.667, 1554495029667
25, 1375.06, -59.58, 2906.62, -1340.34, 0.000, 0.000, 0.000, 14:10:29.695, 1554495029695
26, 484.70, -540.54, 2976.34, -1661.93, 0.000, 0.000, 0.000, 14:10:29.695, 1554495029695
27, 591.32, -684.00, 2532.95, -1280.62, 0.000, 0.000, 0.000, 14:10:29.697, 1554495029697
28, 1363.18, -190.99, 2173.67, -1240.64, 0.000, 0.000, 0.000, 14:10:29.697, 1554495029697
29, 799.07, -292.02, 3084.60, -1300.02, 0.000, 0.000, 0.000, 14:10:29.697, 1554495029697
30, 432.31, -730.76, 2991.96, -1532.63, 0.000, 0.000, 0.000, 14:10:29.697, 1554495029697
31, 1150.76, -383.14, 2913.83, -1455.47, 0.000, 0.000, 0.000, 14:10:29.709, 1554495029709
32, 1159.83, -78.39, 3731.28, -1763.37, 0.000, 0.000, 0.000, 14:10:29.709, 1554495029709
33, 379.38, -685.94, 3463.58, -2691.65, 0.000, 0.000, 0.000, 14:10:29.724, 1554495029724
34, 861.56, -573.37, 3082.15, -1854.64, 0.000, 0.000, 0.000, 14:10:29.724, 1554495029724
35, 1387.23, -45.28, 3888.35, -1314.65, 0.000, 0.000, 0.000, 14:10:29.725, 1554495029725
36, 505.75, -513.56, 3948.85, -1629.34, 0.000, 0.000, 0.000, 14:10:29.725, 1554495029725
37, 613.18, -668.55, 3509.36, -1264.88, 0.000, 0.000, 0.000, 14:10:29.754, 1554495029754
38, 1382.68, -183.41, 3166.35, -1205.64, 0.000, 0.000, 0.000, 14:10:29.754, 1554495029754
39, 822.46, -272.01, 4075.71, -1265.44, 0.000, 0.000, 0.000, 14:10:29.756, 1554495029756
40, 448.67, -719.65, 3953.97, -1537.76, 0.000, 0.000, 0.000, 14:10:29.756, 1554495029756
41, 1171.25, -371.27, 3873.46, -1441.42, 0.000, 0.000, 0.000, 14:10:29.756, 1554495029756
42, 1162.48, -75.97, 4670.82, -1722.82, 0.000, 0.000, 0.000, 14:10:29.756, 1554495029756
43, 391.21, -682.84, 4440.56, -2665.65, 0.000, 0.000, 0.000, 14:10:29.768, 1554495029768
44, 868.75, -569.82, 4052.32, -1879.14, 0.000, 0.000, 0.000, 14:10:29.768, 1554495029768
45, 1407.90, -37.90, 4877.70, -1302.95, 0.000, 0.000, 0.000, 14:10:29.784, 1554495029784
46, 508.88, -509.42, 4944.05, -1596.87, 0.000, 0.000, 0.000, 14:10:29.784, 1554495029784
47, 613.33, -672.08, 4507.53, -1251.68, 0.000, 0.000, 0.000, 14:10:29.785, 1554495029785
48, 1394.29, -168.46, 4125.48, -1204.75, 0.000, 0.000, 0.000, 14:10:29.785, 1554495029785
49, 818.48, -264.24, 5045.82, -1258.49, 0.000, 0.000, 0.000, 14:10:29.799, 1554495029799
50, 449.31, -720.18, 4930.48, -1538.01, 0.000, 0.000, 0.000, 14:10:29.799, 1554495029799
51, 1167.23, -372.61, 4856.39, -1445.51, 0.000, 0.000, 0.000, 14:10:29.814, 1554495029814
52, 1176.86, -63.47, 5677.87, -1752.13, 0.000, 0.000, 0.000, 14:10:29.814, 1554495029814
53, 389.52, -662.14, 5443.17, -2643.17, 0.000, 0.000, 0.000, 14:10:29.815, 1554495029815
54, 870.69, -561.79, 5029.33, -1858.55, 0.000, 0.000, 0.000, 14:10:29.815, 1554495029815
55, 1403.03, -31.13, 5851.56, -1291.75, 0.000, 0.000, 0.000, 14:10:29.828, 1554495029828
56, 497.79, -500.28, 5911.37, -1626.88, 0.000, 0.000, 0.000, 14:10:29.828, 1554495029828
57, 617.17, -665.99, 5466.74, -1269.37, 0.000, 0.000, 0.000, 14:10:29.845, 1554495029845
58, 1385.42, -161.35, 5120.10, -1234.94, 0.000, 0.000, 0.000, 14:10:29.845, 1554495029845
59, 807.76, -255.31, 6052.40, -1241.82, 0.000, 0.000, 0.000, 14:10:29.846, 1554495029846
60, 431.78, -711.40, 5894.61, -1572.33, 0.000, 0.000, 0.000, 14:10:29.846, 1554495029846
61, 1176.25, -343.46, 5853.35, -1450.62, 0.000, 0.000, 0.000, 14:10:29.858, 1554495029858
62, 1172.86, -42.91, 6661.03, -1731.98, 0.000, 0.000, 0.000, 14:10:29.858, 1554495029858
63, 382.95, -655.57, 6408.84, -2679.31, 0.000, 0.000, 0.000, 14:10:29.875, 1554495029875
64, 860.70, -544.57, 6014.31, -1858.35, 0.000, 0.000, 0.000, 14:10:29.875, 1554495029875
65, 1413.22, -14.80, 6851.48, -1266.00, 0.000, 0.000, 0.000, 14:10:29.906, 1554495029906
66, 508.96, -493.40, 6908.07, -1609.98, 0.000, 0.000, 0.000, 14:10:29.906, 1554495029906
67, 587.78, -659.33, 6470.64, -1284.30, 0.000, 0.000, 0.000, 14:10:29.907, 1554495029907
68, 1378.86, -159.17, 6087.29, -1221.38, 0.000, 0.000, 0.000, 14:10:29.907, 1554495029907
69, 827.02, -235.41, 7014.76, -1262.44, 0.000, 0.000, 0.000, 14:10:29.907, 1554495029907
70, 442.78, -705.70, 6895.72, -1553.23, 0.000, 0.000, 0.000, 14:10:29.907, 1554495029907
71, 1158.05, -356.41, 6822.06, -1448.41, 0.000, 0.000, 0.000, 14:10:29.909, 1554495029909
72, 1157.03, -58.52, 7650.72, -1761.13, 0.000, 0.000, 0.000, 14:10:29.909, 1554495029909
73, 390.40, -655.94, 7386.67, -2682.87, 0.000, 0.000, 0.000, 14:10:29.919, 1554495029919
74, 867.65, -540.00, 6993.77, -1846.49, 0.000, 0.000, 0.000, 14:10:29.919, 1554495029919
75, 1406.15, -16.52, 7810.86, -1286.07, 0.000, 0.000, 0.000, 14:10:29.934, 1554495029934
76, 500.41, -481.53, 7883.25, -1623.93, 0.000, 0.000, 0.000, 14:10:29.934, 1554495029934
77, 596.78, -653.87, 7447.61, -1267.28, 0.000, 0.000, 0.000, 14:10:29.936, 1554495029936
78, 1369.20, -153.22, 7041.55, -1257.01, 0.000, 0.000, 0.000, 14:10:29.936, 1554495029936
79, 814.50, -237.39, 8000.21, -1278.77, 0.000, 0.000, 0.000, 14:10:29.949, 1554495029949
80, 431.54, -691.77, 7880.84, -1556.72, 0.000, 0.000, 0.000, 14:10:29.949, 1554495029949
81, 1171.33, -344.00, 7810.18, -1438.06, 0.000, 0.000, 0.000, 14:10:29.964, 1554495029964
82, 1177.83, -35.56, 8599.20, -1703.96, 0.000, 0.000, 0.000, 14:10:29.964, 1554495029964
83, 392.90, -648.69, 8364.91, -2676.47, 0.000, 0.000, 0.000, 14:10:29.966, 1554495029966
84, 857.13, -542.89, 7980.51, -1881.22, 0.000, 0.000, 0.000, 14:10:29.966, 1554495029966
85, 1391.71, -12.32, 8805.51, -1290.65, 0.000, 0.000, 0.000, 14:10:29.979, 1554495029979
86, 507.14, -484.90, 8866.98, -1598.58, 0.000, 0.000, 0.000, 14:10:29.979, 1554495029979
87, 601.02, -666.44, 8411.76, -1275.90, 0.000, 0.000, 0.000, 14:10:29.994, 1554495029994
88, 1357.46, -156.64, 8054.93, -1225.64, 0.000, 0.000, 0.000, 14:10:29.994, 1554495029994
89, 817.78, -230.97, 8994.20, -1231.85, 0.000, 0.000, 0.000, 14:10:29.996, 1554495029996
90, 433.72, -695.80, 8893.14, -1532.39, 0.000, 0.000, 0.000, 14:10:29.996, 1554495029996
91, 1148.30, -343.47, 8801.18, -1471.33, 0.000, 0.000, 0.000, 14:10:30.009, 1554495030009
92, 1156.87, -22.59, 9589.51, -1740.92, 0.000, 0.000, 0.000, 14:10:30.009, 1554495030009
93, 366.85, -633.13, 9372.35, -2669.66, 0.000, 0.000, 0.000, 14:10:30.024, 1554495030024
94, 842.30, -539.11, 8990.17, -1881.01, 0.000, 0.000, 0.000, 14:10:30.024, 1554495030024
95, 1379.92, -21.65, 9773.56, -1322.03, 0.000, 0.000, 0.000, 14:10:30.026, 1554495030026
96, 481.79, -501.31, 9832.84, -1639.26, 0.000, 0.000, 0.000, 14:10:30.026, 1554495030026
97, 581.48, -663.88, 9430.40, -1301.07, 0.000, 0.000, 0.000, 14:10:30.039, 1554495030039
98, 1357.25, -159.33, 9041.46, -1253.93, 0.000, 0.000, 0.000, 14:10:30.039, 1554495030039
99, 777.61, -237.17, 9979.63, -1273.16, 0.000, 0.000, 0.000, 14:10:30.055, 1554495030055
100, 403.42, -701.10, 9853.93, -1572.75, 0.000, 0.000, 0.000, 14:10:30.055, 1554495030055
101, 1144.67, -347.10, 9791.82, -1467.75, 0.000, 0.000, 0.000, 14:10:30.056, 1554495030056
102, 1144.99, -49.29, 10583.88, -1743.44, 0.000, 0.000, 0.000, 14:10:30.056, 1554495030056
103, 348.35, -652.52, 10347.53, -2700.60, 0.000, 0.000, 0.000, 14:10:30.069, 1554495030069
104, 821.84, -550.00, 9945.12, -1894.40, 0.000, 0.000, 0.000, 14:10:30.069, 1554495030069
105, 1368.70, -17.37, 10718.63, -1345.23, 0.000, 0.000, 0.000, 14:10:30.084, 1554495030084
106, 488.40, -473.21, 10824.93, -1672.65, 0.000, 0.000, 0.000, 14:10:30.084, 1554495030084
107, 579.95, -658.82, 10380.24, -1337.16, 0.000, 0.000, 0.000, 14:10:30.086, 1554495030086
108, 1350.10, -157.06, 10026.85, -1219.89, 0.000, 0.000, 0.000, 14:10:30.086, 1554495030086
109, 807.71, -233.16, 10963.59, -1252.00, 0.000, 0.000, 0.000, 14:10:30.115, 1554495030115
110, 403.48, -714.09, 10848.01, -1565.88, 0.000, 0.000, 0.000, 14:10:30.115, 1554495030115
111, 1129.44, -368.22, 10750.46, -1484.39, 0.000, 0.000, 0.000, 14:10:30.116, 1554495030116
112, 1125.33, -58.07, 11561.09, -1733.78, 0.000, 0.000, 0.000, 14:10:30.116, 1554495030116
113, 341.79, -662.75, 11307.57, -2706.28, 0.000, 0.000, 0.000, 14:10:30.116, 1554495030116
114, 804.25, -568.00, 10944.80, -1914.86, 0.000, 0.000, 0.000, 14:10:30.116, 1554495030116
115, 1360.01, -37.19, 11714.94, -1350.28, 0.000, 0.000, 0.000, 14:10:30.128, 1554495030128
116, 483.51, -489.24, 11811.80, -1682.13, 0.000, 0.000, 0.000, 14:10:30.128, 1554495030128
117, 564.48, -662.45, 11420.07, -1322.05, 0.000, 0.000, 0.000, 14:10:30.144, 1554495030144
118, 1333.82, -180.12, 10997.97, -1250.83, 0.000, 0.000, 0.000, 14:10:30.144, 1554495030144
119, 783.40, -245.01, 11949.50, -1259.30, 0.000, 0.000, 0.000, 14:10:30.145, 1554495030145
120, 395.98, -715.21, 11842.10, -1588.71, 0.000, 0.000, 0.000, 14:10:30.145, 1554495030145
121, 1110.58, -378.38, 11729.48, -1526.09, 0.000, 0.000, 0.000, 14:10:30.158, 1554495030158
122, 1136.85, -56.03, 12545.85, -1757.05, 0.000, 0.000, 0.000, 14:10:30.158, 1554495030158
123, 358.72, -665.77, 12315.90, -2729.92, 0.000, 0.000, 0.000, 14:10:30.174, 1554495030174
124, 811.20, -561.91, 11913.43, -1939.21, 0.000, 0.000, 0.000, 14:10:30.174, 1554495030174
125, 1357.56, -37.22, 12678.43, -1365.94, 0.000, 0.000, 0.000, 14:10:30.175, 1554495030175
126, 467.16, -491.63, 12801.94, -1652.41, 0.000, 0.000, 0.000, 14:10:30.175, 1554495030175
127, 544.38, -679.90, 12369.08, -1325.53, 0.000, 0.000, 0.000, 14:10:30.188, 1554495030188
128, 1343.52, -182.79, 11988.54, -1276.36, 0.000, 0.000, 0.000, 14:10:30.188, 1554495030188
129, 776.75, -253.04, 12930.58, -1295.30, 0.000, 0.000, 0.000, 14:10:30.204, 1554495030204
130, 388.15, -715.15, 12821.86, -1628.31, 0.000, 0.000, 0.000, 14:10:30.204, 1554495030204
131, 1100.80, -386.56, 12721.59, -1513.06, 0.000, 0.000, 0.000, 14:10:30.219, 1554495030219
132, 1128.10, -57.83, 13509.59, -1777.35, 0.000, 0.000, 0.000, 14:10:30.219, 1554495030219
133, 349.40, -672.45, 13314.62, -1778.95, 0.000, 0.000, 0.000, 14:10:30.220, 1554495030220
134, 819.88, -571.12, 12925.98, -967.90, 0.000, 0.000, 0.000, 14:10:30.220, 1554495030220
135, 1350.10, -24.90, 13707.21, -351.14, 0.000, 0.000, 0.000, 14:10:30.234, 1554495030234
136, 447.36, -500.16, 13800.87, -667.71, 0.000, 0.000, 0.000, 14:10:30.234, 1554495030234
137, 532.89, -673.53, 13350.05, -379.69, 0.000, 0.000, 0.000, 14:10:30.235, 1554495030235
138, 1312.26, -175.00, 12966.77, -326.76, 0.000, 0.000, 0.000, 14:10:30.235, 1554495030235
139, 776.10, -241.14, 13911.05, -331.50, 0.000, 0.000, 0.000, 14:10:30.248, 1554495030248
140, 376.74, -710.46, 13807.32, -619.48, 0.000, 0.000, 0.000, 14:10:30.248, 1554495030248
141, 1079.81, -393.65, 13707.31, -566.10, 0.000, 0.000, 0.000, 14:10:30.264, 1554495030264
142, 1106.23, -70.90, 14491.83, -830.30, 0.000, 0.000, 0.000, 14:10:30.264, 1554495030264
143, 339.93, -667.91, 14280.91, -1765.37, 0.000, 0.000, 0.000, 14:10:30.265, 1554495030265
144, 786.70, -559.14, 13903.52, -968.80, 0.000, 0.000, 0.000, 14:10:30.265, 1554495030265
145, 1337.99, -34.16, 14674.30, -400.36, 0.000, 0.000, 0.000, 14:10:30.279, 1554495030279
146, 461.46, -491.10, 14792.33, -681.97, 0.000, 0.000, 0.000, 14:10:30.279, 1554495030279
147, 530.57, -684.91, 14340.95, -371.66, 0.000, 0.000, 0.000, 14:10:30.311, 1554495030311
148, 1306.55, -197.70, 13931.41, -310.35, 0.000, 0.000, 0.000, 14:10:30.311, 1554495030311
149, 756.33, -255.34, 14879.46, -337.05, 0.000, 0.000, 0.000, 14:10:30.314, 1554495030314
150, 379.57, -737.33, 14779.23, -652.99, 0.000, 0.000, 0.000, 14:10:30.314, 1554495030314
151, 1090.44, -402.35, 14703.83, -586.87, 0.000, 0.000, 0.000, 14:10:30.314, 1554495030314
152, 1116.21, -74.71, 15487.31, -826.88, 0.000, 0.000, 0.000, 14:10:30.314, 1554495030314
153, 314.33, -675.58, 15290.15, -1748.14, 0.000, 0.000, 0.000, 14:10:30.317, 1554495030317
154, 772.56, -581.56, 14891.80, -956.29, 0.000, 0.000, 0.000, 14:10:30.317, 1554495030317
155, 1344.95, -52.57, 15618.42, -381.49, 0.000, 0.000, 0.000, 14:10:30.341, 1554495030341
156, 441.27, -513.78, 15763.98, -720.22, 0.000, 0.000, 0.000, 14:10:30.341, 1554495030341
157, 538.56, -688.06, 15348.59, -377.17, 0.000, 0.000, 0.000, 14:10:30.342, 1554495030342
158, 1297.67, -197.12, 14936.16, -348.84, 0.000, 0.000, 0.000, 14:10:30.342, 1554495030342
159, 771.83, -255.36, 15911.14, -1315.51, 0.000, 0.000, 0.000, 14:10:30.342, 1554495030342
160, 356.53, -739.17, 15789.46, -1632.98, 0.000, 0.000, 0.000, 14:10:30.342, 1554495030342
161, 1078.12, -413.33, 15670.43, -1559.81, 0.000, 0.000, 0.000, 14:10:30.354, 1554495030354
162, 1097.82, -86.33, 16446.85, -1780.75, 0.000, 0.000, 0.000, 14:10:30.354, 1554495030354
163, 316.49, -692.16, 16260.48, -2739.16, 0.000, 0.000, 0.000, 14:10:30.369, 1554495030369
164, 760.76, -592.04, 15876.24, -1955.99, 0.000, 0.000, 0.000, 14:10:30.369, 1554495030369
165, 1335.20, -65.72, 16644.01, -1372.21, 0.000, 0.000, 0.000, 14:10:30.384, 1554495030384
166, 444.49, -517.80, 16742.79, -1715.02, 0.000, 0.000, 0.000, 14:10:30.384, 1554495030384
167, 534.46, -694.33, 16292.88, -1367.48, 0.000, 0.000, 0.000, 14:10:30.386, 1554495030386
168, 1300.04, -211.95, 15911.20, -1328.81, 0.000, 0.000, 0.000, 14:10:30.386, 1554495030386
169, 748.09, -274.40, 16857.28, -2282.68, 0.000, 0.000, 0.000, 14:10:30.399, 1554495030399
170, 357.46, -753.43, 16760.31, -2614.14, 0.000, 0.000, 0.000, 14:10:30.399, 1554495030399
171, 1066.67, -417.26, 16651.52, -2508.42, 0.000, 0.000, 0.000, 14:10:30.415, 1554495030415
172, 1100.70, -99.69, 17449.31, -2770.30, 0.000, 0.000, 0.000, 14:10:30.415, 1554495030415
173, 329.74, -700.95, 17248.20, -3718.67, 0.000, 0.000, 0.000, 14:10:30.416, 1554495030416
174, 772.06, -619.19, 16830.86, -2949.24, 0.000, 0.000, 0.000, 14:10:30.416, 1554495030416
175, 1313.57, -85.39, 17575.88, -2363.93, 0.000, 0.000, 0.000, 14:10:30.460, 1554495030460
176, 477.64, -526.63, 17721.81, -2692.40, 0.000, 0.000, 0.000, 14:10:30.460, 1554495030460
177, 517.99, -723.09, 17288.82, -2329.34, 0.000, 0.000, 0.000, 14:10:30.476, 1554495030476
178, 1304.44, -235.02, 16869.49, -2295.05, 0.000, 0.000, 0.000, 14:10:30.476, 1554495030476
179, 774.13, -294.50, 17833.58, -3263.65, 0.000, 0.000, 0.000, 14:10:30.477, 1554495030477
180, 360.42, -770.91, 17729.60, -3584.98, 0.000, 0.000, 0.000, 14:10:30.477, 1554495030477
181, 1067.52, -450.48, 17638.95, -3516.96, 0.000, 0.000, 0.000, 14:10:30.478, 1554495030478
182, 1103.74, -109.56, 18425.69, -3740.70, 0.000, 0.000, 0.000, 14:10:30.478, 1554495030478
183, 324.73, -707.97, 18231.70, -4699.48, 0.000, 0.000, 0.000, 14:10:30.478, 1554495030478
184, 775.04, -624.71, 17819.65, -3970.61, 0.000, 0.000, 0.000, 14:10:30.478, 1554495030478
185, 1329.55, -89.46, 18548.33, -3345.58, 0.000, 0.000, 0.000, 14:10:30.489, 1554495030489
186, 455.56, -544.29, 18684.83, -3656.87, 0.000, 0.000, 0.000, 14:10:30.489, 1554495030489
187, 514.99, -739.68, 18293.80, -3290.64, 0.000, 0.000, 0.000, 14:10:30.493, 1554495030493
188, 1312.37, -238.38, 17881.91, -3241.55, 0.000, 0.000, 0.000, 14:10:30.493, 1554495030493
189, 762.89, -307.98, 18835.75, -3258.84, 0.000, 0.000, 0.000, 14:10:30.504, 1554495030504
190, 355.50, -791.01, 18698.07, -3645.92, 0.000, 0.000, 0.000, 14:10:30.504, 1554495030504
191, 1072.50, -451.79, 18603.59, -3552.84, 0.000, 0.000, 0.000, 14:10:30.505, 1554495030505
192, 1123.70, -123.43, 19399.47, -3721.86, 0.000, 0.000, 0.000, 14:10:30.505, 1554495030505
193, 324.97, -735.34, 19199.89, -3732.31, 0.000, 0.000, 0.000, 14:10:30.534, 1554495030534
194, 768.21, -662.19, 18788.27, -2946.66, 0.000, 0.000, 0.000, 14:10:30.534, 1554495030534
195, 1334.93, -128.87, 19529.94, -2348.81, 0.000, 0.000, 0.000, 14:10:30.536, 1554495030536
196, 458.38, -570.81, 19678.50, -2641.82, 0.000, 0.000, 0.000, 14:10:30.536, 1554495030536
197, 521.01, -766.34, 19227.62, -2371.85, 0.000, 0.000, 0.000, 14:10:30.536, 1554495030536
198, 1309.91, -284.74, 18835.23, -2295.31, 0.000, 0.000, 0.000, 14:10:30.536, 1554495030536
199, 768.93, -335.85, 19783.41, -3259.36, 0.000, 0.000, 0.000, 14:10:30.549, 1554495030549
200, 377.44, -812.35, 19691.75, -3610.28, 0.000, 0.000, 0.000, 14:10:30.549, 1554495030549
0, 1076.79, -478.57, -989.65, 379.97, 0.000, 0.000, 0.000, 14:10:30.550, 1554495030550
1, 1121.06, -158.71, -244.75, 190.04, 0.000, 0.000, 0.000, 14:10:30.563, 1554495030563
2, 327.13, -761.94, -404.32, -776.52, 0.000, 0.000, 0.000, 14:10:30.563, 1554495030563
3, 773.65, -682.23, -786.70, 13.25, 0.000, 0.000, 0.000, 14:10:30.579, 1554495030579
4, 1346.58, -145.56, -66.44, 621.66, 0.000, 0.000, 0.000, 14:10:30.579, 1554495030579
5, 467.82, -604.94, 69.32, 267.46, 0.000, 0.000, 0.000, 14:10:30.581, 1554495030581
6, 535.17, -802.08, -380.62, 570.90, 0.000, 0.000, 0.000, 14:10:30.581, 1554495030581
7, 1313.38, -305.03, -790.89, 636.52, 0.000, 0.000, 0.000, 14:10:30.593, 1554495030593
8, 768.72, -365.72, 156.39, -329.75, 0.000, 0.000, 0.000, 14:10:30.593, 1554495030593
9, 394.04, -832.27, 94.96, -670.65, 0.000, 0.000, 0.000, 14:10:30.609, 1554495030609
10, 1087.42, -516.08, -36.60, -543.76, 0.000, 0.000, 0.000, 14:10:30.609, 1554495030609
11, 1139.62, -180.85, 762.83, -774.09, 0.000, 0.000, 0.000, 14:10:30.610, 1554495030610
12, 355.10, -784.14, 570.87, -785.06, 0.000, 0.000, 0.000, 14:10:30.610, 1554495030610
13, 792.11, -693.22, 190.63, 16.08, 0.000, 0.000, 0.000, 14:10:30.623, 1554495030623
14, 1353.14, -174.03, 876.38, 602.57, 0.000, 0.000, 0.000, 14:10:30.623, 1554495030623
15, 480.83, -600.92, 1053.43, 271.37, 0.000, 0.000, 0.000, 14:10:30.639, 1554495030639
16, 574.85, -803.30, 651.98, 608.16, 0.000, 0.000, 0.000, 14:10:30.639, 1554495030639
17, 1329.89, -315.18, 200.30, 651.04, 0.000, 0.000, 0.000, 14:10:30.686, 1554495030686
18, 785.90, -357.40, 1150.17, 650.86, 0.000, 0.000, 0.000, 14:10:30.686, 1554495030686
19, 394.10, -865.70, 1073.60, 312.18, 0.000, 0.000, 0.000, 14:10:30.687, 1554495030687
20, 1110.41, -540.17, 937.91, 392.68, 0.000, 0.000, 0.000, 14:10:30.687, 1554495030687
21, 1150.91, 102.97, 1773.27, 153.50, 0.000, 0.000, 0.000, 14:10:30.689, 1554495030689
22, 308.55, -440.51, 1606.59, 148.11, 0.000, 0.000, 0.000, 14:10:30.689, 1554495030689
23, 749.71, -371.62, 1212.68, 911.11, 0.000, 0.000, 0.000, 14:10:30.689, 1554495030689
24, 1316.98, 147.47, 1904.99, 1525.75, 0.000, 0.000, 0.000, 14:10:30.689, 1554495030689
25, 452.24, -275.23, 2096.31, 1197.69, 0.000, 0.000, 0.000, 14:10:30.700, 1554495030700
26, 510.50, -506.53, 1636.18, 1484.57, 0.000, 0.000, 0.000, 14:10:30.700, 1554495030700
27, 1298.04, -34.04, 1238.05, 1584.26, 0.000, 0.000, 0.000, 14:10:30.702, 1554495030702
28, 775.17, -66.01, 2202.04, 1545.37, 0.000, 0.000, 0.000, 14:10:30.702, 1554495030702
29, 360.46, -559.76, 2092.75, 1198.84, 0.000, 0.000, 0.000, 14:10:30.703, 1554495030703
30, 1063.52, -274.15, 1969.83, 1305.03, 0.000, 0.000, 0.000, 14:10:30.703, 1554495030703
31, 1112.25, 72.74, 2746.38, 1098.53, 0.000, 0.000, 0.000, 14:10:30.714, 1554495030714
32, 340.65, -526.71, 2587.25, 127.21, 0.000, 0.000, 0.000, 14:10:30.714, 1554495030714
33, 783.01, -473.17, 2172.86, 919.70, 0.000, 0.000, 0.000, 14:10:30.729, 1554495030729
34, 1359.29, 51.27, 2861.68, 1493.02, 0.000, 0.000, 0.000, 14:10:30.729, 1554495030729
35, 469.69, -379.48, 3059.48, 1204.16, 0.000, 0.000, 0.000, 14:10:30.731, 1554495030731
36, 556.24, -592.97, 2626.46, 1508.21, 0.000, 0.000, 0.000, 14:10:30.731, 1554495030731
37, 1328.90, -137.25, 2195.77, 1569.09, 0.000, 0.000, 0.000, 14:10:30.744, 1554495030744
38, 794.59, -172.55, 3155.58, 606.30, 0.000, 0.000, 0.000, 14:10:30.744, 1554495030744
39, 400.96, -649.09, 3074.79, 251.54, 0.000, 0.000, 0.000, 14:10:30.759, 1554495030759
40, 1106.91, -357.89, 2943.39, 329.95, 0.000, 0.000, 0.000, 14:10:30.759, 1554495030759
41, 1157.70, -15.58, 3729.11, 156.80, 0.000, 0.000, 0.000, 14:10:30.761, 1554495030761
42, 348.28, -617.59, 3549.06, 140.38, 0.000, 0.000, 0.000, 14:10:30.761, 1554495030761
43, 812.88, -547.86, 3152.47, 902.03, 0.000, 0.000, 0.000, 14:10:30.774, 1554495030774
44, 1385.77, -19.37, 3844.91, 1532.62, 0.000, 0.000, 0.000, 14:10:30.774, 1554495030774
45, 503.54, -450.02, 4038.45, 1224.18, 0.000, 0.000, 0.000, 14:10:30.789, 1554495030789
46, 586.81, -671.79, 3600.92, 1465.55, 0.000, 0.000, 0.000, 14:10:30.789, 1554495030789
47, 1362.79, -193.85, 3174.96, 1601.65, 0.000, 0.000, 0.000, 14:10:30.791, 1554495030791
48, 853.46, -235.75, 4108.04, 1578.96, 0.000, 0.000, 0.000, 14:10:30.791, 1554495030791
49, 423.08, -725.59, 4050.39, 1282.13, 0.000, 0.000, 0.000, 14:10:30.804, 1554495030804
50, 1134.09, -431.63, 3905.28, 1323.28, 0.000, 0.000, 0.000, 14:10:30.804, 1554495030804
51, 1204.81, -82.61, 4702.74, 1144.33, 0.000, 0.000, 0.000, 14:10:30.820, 1554495030820
52, 410.48, -689.18, 4547.91, 1133.57, 0.000, 0.000, 0.000, 14:10:30.820, 1554495030820
53, 832.32, -630.57, 4131.82, 1891.38, 0.000, 0.000, 0.000, 14:10:30.821, 1554495030821
54, 1422.32, -103.69, 4817.28, 2511.01, 0.000, 0.000, 0.000, 14:10:30.821, 1554495030821
55, 576.88, -511.57, 4997.25, 2206.07, 0.000, 0.000, 0.000, 14:10:30.834, 1554495030834
56, 634.01, -739.57, 4561.73, 2493.18, 0.000, 0.000, 0.000, 14:10:30.834, 1554495030834
57, 1408.84, -273.86, 4127.40, 2570.41, 0.000, 0.000, 0.000, 14:10:30.881, 1554495030881
58, 897.54, -301.80, 5087.46, 1611.71, 0.000, 0.000, 0.000, 14:10:30.881, 1554495030881
59, 480.32, -790.91, 5031.47, 1269.81, 0.000, 0.000, 0.000, 14:10:30.882, 1554495030882
60, 1196.65, -501.61, 4898.53, 1367.63, 0.000, 0.000, 0.000, 14:10:30.882, 1554495030882
61, 1240.92, -162.28, 5655.69, 1154.49, 0.000, 0.000, 0.000, 14:10:30.882, 1554495030882
62, 455.03, -754.21, 5509.08, 181.66, 0.000, 0.000, 0.000, 14:10:30.882, 1554495030882
63, 892.49, -685.57, 5104.69, 926.46, 0.000, 0.000, 0.000, 14:10:30.884, 1554495030884
64, 1462.57, -163.29, 5777.21, 1555.09, 0.000, 0.000, 0.000, 14:10:30.884, 1554495030884
65, 611.56, -579.26, 5971.26, 1208.46, 0.000, 0.000, 0.000, 14:10:30.910, 1554495030910
66, 659.32, -803.98, 5539.14, 1538.14, 0.000, 0.000, 0.000, 14:10:30.910, 1554495030910
67, 1438.88, -331.18, 5103.47, 1615.63, 0.000, 0.000, 0.000, 14:10:30.912, 1554495030912
68, 936.87, -346.72, 5118.84, 692.64, 0.000, 0.000, 0.000, 14:10:30.912, 1554495030912
69, 527.48, -838.86, 5043.69, 296.78, 0.000, 0.000, 0.000, 14:10:30.912, 1554495030912
70, 1222.53, -546.00, 4885.04, 369.19, 0.000, 0.000, 0.000, 14:10:30.912, 1554495030912
71, 1281.87, -200.80, 5673.30, 197.91, 0.000, 0.000, 0.000, 14:10:30.913, 1554495030913
72, 467.17, -801.85, 5508.02, 174.34, 0.000, 0.000, 0.000, 14:10:30.913, 1554495030913
73, 913.92, -733.43, 5115.48, 955.12, 0.000, 0.000, 0.000, 14:10:30.923, 1554495030923
74, 1519.56, -190.48, 5803.61, 1580.06, 0.000, 0.000, 0.000, 14:10:30.923, 1554495030923
75, 634.31, -619.81, 5990.36, 1240.51, 0.000, 0.000, 0.000, 14:10:30.939, 1554495030939
76, 691.83, -837.38, 5561.90, 1567.34, 0.000, 0.000, 0.000, 14:10:30.939, 1554495030939
77, 1486.02, -370.96, 5091.02, 1621.04, 0.000, 0.000, 0.000, 14:10:30.941, 1554495030941
78, 959.32, -401.68, 6054.74, 688.97, 0.000, 0.000, 0.000, 14:10:30.941, 1554495030941
79, 538.56, -894.05, 6006.29, 309.07, 0.000, 0.000, 0.000, 14:10:30.953, 1554495030953
80, 1247.83, -597.00, 5871.78, 402.38, 0.000, 0.000, 0.000, 14:10:30.953, 1554495030953
81, 1306.17, -243.31, 6615.34, 190.34, 0.000, 0.000, 0.000, 14:10:30.969, 1554495030969
82, 512.55, -824.67, 6495.99, 176.79, 0.000, 0.000, 0.000, 14:10:30.969, 1554495030969
83, 956.80, -768.97, 6111.77, 988.65, 0.000, 0.000, 0.000, 14:10:30.972, 1554495030972
84, 1530.18, -250.01, 6754.62, 1581.26, 0.000, 0.000, 0.000, 14:10:30.972, 1554495030972
85, 663.94, -662.05, 6975.22, 1290.30, 0.000, 0.000, 0.000, 14:10:30.983, 1554495030983
86, 701.11, -879.36, 6544.21, 1550.21, 0.000, 0.000, 0.000, 14:10:30.983, 1554495030983
87, 1473.86, -405.52, 6078.89, 1587.97, 0.000, 0.000, 0.000, 14:10:30.999, 1554495030999
88, 976.21, -411.46, 7049.89, 692.13, 0.000, 0.000, 0.000, 14:10:30.999, 1554495030999
89, 571.56, -899.00, 7000.03, 334.55, 0.000, 0.000, 0.000, 14:10:31.001, 1554495031001
90, 1267.87, -608.14, 6845.97, 410.93, 0.000, 0.000, 0.000, 14:10:31.001, 1554495031001
91, 1333.24, -250.22, 7605.71, 214.49, 0.000, 0.000, 0.000, 14:10:31.013, 1554495031013
92, 530.82, -845.89, 7489.04, 196.87, 0.000, 0.000, 0.000, 14:10:31.013, 1554495031013
93, 973.09, -790.61, 7092.70, 970.07, 0.000, 0.000, 0.000, 14:10:31.029, 1554495031029
94, 1571.51, -254.57, 7761.74, 1593.11, 0.000, 0.000, 0.000, 14:10:31.029, 1554495031029
95, 693.79, -673.86, 7957.61, 1268.83, 0.000, 0.000, 0.000, 14:10:31.031, 1554495031031
96, 748.86, -892.64, 7540.66, 1614.16, 0.000, 0.000, 0.000, 14:10:31.031, 1554495031031
97, 1522.10, -429.25, 7052.36, 1654.59, 0.000, 0.000, 0.000, 14:10:31.043, 1554495031043
98, 995.86, -460.60, 8014.18, 691.37, 0.000, 0.000, 0.000, 14:10:31.043, 1554495031043
99, 602.19, -945.24, 7979.94, 336.65, 0.000, 0.000, 0.000, 14:10:31.059, 1554495031059
100, 1319.77, -644.85, 7849.82, 406.18, 0.000, 0.000, 0.000, 14:10:31.059, 1554495031059
101, 1373.38, -296.47, 8590.31, 205.96, 0.000, 0.000, 0.000, 14:10:31.061, 1554495031061
102, 578.67, -882.78, 8468.92, -768.56, 0.000, 0.000, 0.000, 14:10:31.061, 1554495031061
103, 1008.62, -840.94, 8051.15, 0.43, 0.000, 0.000, 0.000, 14:10:31.074, 1554495031074
104, 1582.07, -307.02, 8712.14, 620.82, 0.000, 0.000, 0.000, 14:10:31.074, 1554495031074
105, 728.12, -708.65, 8964.57, 358.46, 0.000, 0.000, 0.000, 14:10:31.089, 1554495031089
106, 784.12, -935.72, 8500.98, 618.72, 0.000, 0.000, 0.000, 14:10:31.089, 1554495031089
107, 1537.97, -465.21, 8028.94, 668.19, 0.000, 0.000, 0.000, 14:10:31.090, 1554495031090
108, 1056.23, -472.61, 8997.16, 667.97, 0.000, 0.000, 0.000, 14:10:31.090, 1554495031090
109, 631.89, -961.15, 8972.80, 352.67, 0.000, 0.000, 0.000, 14:10:31.120, 1554495031120
110, 1317.22, -661.49, 8832.18, 450.04, 0.000, 0.000, 0.000, 14:10:31.120, 1554495031120
111, 1376.00, -308.70, 9577.19, 267.57, 0.000, 0.000, 0.000, 14:10:31.121, 1554495031121
112, 577.83, -899.85, 9448.37, 236.31, 0.000, 0.000, 0.000, 14:10:31.121, 1554495031121
113, 1017.45, -831.68, 9063.33, 1007.30, 0.000, 0.000, 0.000, 14:10:31.123, 1554495031123
114, 1606.77, -309.01, 9671.54, 1586.43, 0.000, 0.000, 0.000, 14:10:31.123, 1554495031123
115, 744.41, -714.80, 9920.20, 1320.15, 0.000, 0.000, 0.000, 14:10:31.134, 1554495031134
116, 791.35, -941.13, 9511.37, 1583.75, 0.000, 0.000, 0.000, 14:10:31.134, 1554495031134
117, 1552.34, -482.12, 9004.36, 1647.01, 0.000, 0.000, 0.000, 14:10:31.149, 1554495031149
118, 1053.95, -483.49, 9976.93, 712.86, 0.000, 0.000, 0.000, 14:10:31.149, 1554495031149
119, 629.50, -975.45, 9933.30, 367.63, 0.000, 0.000, 0.000, 14:10:31.151, 1554495031151
120, 1332.22, -684.70, 9806.98, 446.26, 0.000, 0.000, 0.000, 14:10:31.151, 1554495031151
121, 1403.56, -323.04, 10558.49, 247.99, 0.000, 0.000, 0.000, 14:10:31.164, 1554495031164
122, 610.32, -912.79, 10435.15, 228.89, 0.000, 0.000, 0.000, 14:10:31.164, 1554495031164
123, 1033.87, -857.70, 10022.52, 1016.43, 0.000, 0.000, 0.000, 14:10:31.179, 1554495031179
124, 1627.45, -328.08, 10680.65, 1653.37, 0.000, 0.000, 0.000, 14:10:31.179, 1554495031179
125, 750.60, -735.52, 10896.40, 1302.42, 0.000, 0.000, 0.000, 14:10:31.181, 1554495031181
126, 799.94, -950.83, 10472.66, 1604.41, 0.000, 0.000, 0.000, 14:10:31.181, 1554495031181
127, 1580.99, -478.14, 10021.11, 1675.90, 0.000, 0.000, 0.000, 14:10:31.194, 1554495031194
128, 1091.00, -488.38, 10986.23, 739.11, 0.000, 0.000, 0.000, 14:10:31.194, 1554495031194
129, 663.36, -983.14, 10932.82, 371.09, 0.000, 0.000, 0.000, 14:10:31.209, 1554495031209
130, 1347.25, -687.55, 10761.37, 404.08, 0.000, 0.000, 0.000, 14:10:31.209, 1554495031209
131, 1423.32, -322.05, 11512.26, 254.82, 0.000, 0.000, 0.000, 14:10:31.225, 1554495031225
132, 603.94, -913.31, 11422.65, -721.80, 0.000, 0.000, 0.000, 14:10:31.225, 1554495031225
133, 1068.73, -857.87, 11028.76, 70.27, 0.000, 0.000, 0.000, 14:10:31.239, 1554495031239
134, 1639.96, -332.35, 11648.77, 666.96, 0.000, 0.000, 0.000, 14:10:31.239, 1554495031239
135, 750.94, -729.48, 11879.65, 362.44, 0.000, 0.000, 0.000, 14:10:31.242, 1554495031242
136, 821.78, -950.65, 11464.02, 622.36, 0.000, 0.000, 0.000, 14:10:31.242, 1554495031242
137, 1588.39, -478.82, 10983.49, 699.21, 0.000, 0.000, 0.000, 14:10:31.242, 1554495031242
138, 1093.27, -481.28, 10989.13, -255.86, 0.000, 0.000, 0.000, 14:10:31.242, 1554495031242
139, 679.72, -956.03, 10951.09, -622.80, 0.000, 0.000, 0.000, 14:10:31.253, 1554495031253
140, 1378.84, -647.59, 10818.21, -513.01, 0.000, 0.000, 0.000, 14:10:31.253, 1554495031253
141, 1468.22, -284.59, 11566.90, -659.61, 0.000, 0.000, 0.000, 14:10:31.269, 1554495031269
142, 629.62, -889.45, 11423.72, -703.34, 0.000, 0.000, 0.000, 14:10:31.269, 1554495031269
143, 1057.18, -836.48, 11016.10, 33.14, 0.000, 0.000, 0.000, 14:10:31.270, 1554495031270
144, 1635.04, -317.94, 11623.75, 696.93, 0.000, 0.000, 0.000, 14:10:31.270, 1554495031270
145, 765.98, -730.55, 11893.22, 342.88, 0.000, 0.000, 0.000, 14:10:31.283, 1554495031283
146, 812.57, -948.36, 11452.15, 593.81, 0.000, 0.000, 0.000, 14:10:31.283, 1554495031283
147, 1588.34, -478.49, 10976.91, 705.20, 0.000, 0.000, 0.000, 14:10:31.299, 1554495031299
148, 1117.39, -467.04, 10996.56, -205.19, 0.000, 0.000, 0.000, 14:10:31.299, 1554495031299
149, 660.14, -973.21, 10945.48, -572.65, 0.000, 0.000, 0.000, 14:10:31.300, 1554495031300
150, 1331.07, -681.59, 10773.95, -531.23, 0.000, 0.000, 0.000, 14:10:31.300, 1554495031300
151, 1447.55, -305.95, 11498.51, -686.33, 0.000, 0.000, 0.000, 14:10:31.313, 1554495031313
152, 633.04, -897.72, 11429.94, -771.14, 0.000, 0.000, 0.000, 14:10:31.313, 1554495031313
153, 1047.72, -842.37, 11027.10, 41.91, 0.000, 0.000, 0.000, 14:10:31.329, 1554495031329
154, 1642.35, -301.03, 11662.99, 694.66, 0.000, 0.000, 0.000, 14:10:31.329, 1554495031329
155, 785.97, -704.33, 11906.45, 379.17, 0.000, 0.000, 0.000, 14:10:31.330, 1554495031330
156, 819.95, -925.91, 11502.73, 662.12, 0.000, 0.000, 0.000, 14:10:31.330, 1554495031330
157, 1583.08, -461.86, 10983.19, 697.47, 0.000, 0.000, 0.000, 14:10:31.343, 1554495031343
158, 1078.85, -473.01, 10994.99, -217.83, 0.000, 0.000, 0.000, 14:10:31.343, 1554495031343
159, 664.03, -944.24, 10952.94, -574.89, 0.000, 0.000, 0.000, 14:10:31.359, 1554495031359
160, 1358.61, -653.84, 10797.75, -542.06, 0.000, 0.000, 0.000, 14:10:31.359, 1554495031359
161, 1451.16, -287.89, 11505.06, -703.13, 0.000, 0.000, 0.000, 14:10:31.360, 1554495031360
162, 612.55, -885.20, 11443.52, -744.60, 0.000, 0.000, 0.000, 14:10:31.360, 1554495031360
163, 1049.87, -822.55, 11057.90, 56.53, 0.000, 0.000, 0.000, 14:10:31.373, 1554495031373
164, 1659.34, -292.61, 11671.68, 672.26, 0.000, 0.000, 0.000, 14:10:31.373, 1554495031373
165, 779.31, -690.30, 11914.45, 380.89, 0.000, 0.000, 0.000, 14:10:31.389, 1554495031389
166, 812.69, -922.76, 11458.61, 644.93, 0.000, 0.000, 0.000, 14:10:31.389, 1554495031389
167, 1599.63, -451.66, 10986.55, 723.10, 0.000, 0.000, 0.000, 14:10:31.390, 1554495031390
168, 1101.97, -455.76, 11949.56, -196.66, 0.000, 0.000, 0.000, 14:10:31.390, 1554495031390
169, 660.25, -946.35, 11932.24, -621.44, 0.000, 0.000, 0.000, 14:10:31.419, 1554495031419
170, 1365.54, -645.41, 11788.63, -504.14, 0.000, 0.000, 0.000, 14:10:31.419, 1554495031419
171, 1452.48, -273.30, 12533.58, -677.66, 0.000, 0.000, 0.000, 14:10:31.466, 1554495031466
172, 631.67, -869.94, 12421.17, -757.19, 0.000, 0.000, 0.000, 14:10:31.466, 1554495031466
173, 1048.19, -818.47, 11993.26, 36.85, 0.000, 0.000, 0.000, 14:10:31.468, 1554495031468
174, 1655.69, -271.03, 12634.50, 682.71, 0.000, 0.000, 0.000, 14:10:31.468, 1554495031468
175, 800.37, -666.28, 12918.91, 414.16, 0.000, 0.000, 0.000, 14:10:31.468, 1554495031468
176, 819.96, -902.33, 12470.03, 653.33, 0.000, 0.000, 0.000, 14:10:31.468, 1554495031468
177, 1585.85, -443.88, 11979.17, 689.60, 0.000, 0.000, 0.000, 14:10:31.469, 1554495031469
178, 1106.37, -438.80, 12000.27, -186.94, 0.000, 0.000, 0.000, 14:10:31.469, 1554495031469
179, 683.26, -914.62, 11934.45, -581.78, 0.000, 0.000, 0.000, 14:10:31.481, 1554495031481
180, 1369.81, -624.91, 11760.14, -530.58, 0.000, 0.000, 0.000, 14:10:31.481, 1554495031481
181, 1439.29, -252.91, 12485.45, -671.94, 0.000, 0.000, 0.000, 14:10:31.482, 1554495031482
182, 627.62, -842.58, 12418.16, -689.90, 0.000, 0.000, 0.000, 14:10:31.482, 1554495031482
183, 1055.03, -789.72, 12021.33, 60.51, 0.000, 0.000, 0.000, 14:10:31.482, 1554495031482
184, 1649.70, -249.52, 12642.25, 687.21, 0.000, 0.000, 0.000, 14:10:31.482, 1554495031482
185, 794.97, -646.07, 12908.02, 391.20, 0.000, 0.000, 0.000, 14:10:31.484, 1554495031484
186, 812.44, -876.53, 12474.45, 641.26, 0.000, 0.000, 0.000, 14:10:31.484, 1554495031484
187, 1569.09, -415.06, 11952.88, 696.41, 0.000, 0.000, 0.000, 14:10:31.494, 1554495031494
188, 1100.95, -410.94, 11962.52, -216.70, 0.000, 0.000, 0.000, 14:10:31.494, 1554495031494
189, 661.42, -897.79, 11935.82, -590.75, 0.000, 0.000, 0.000, 14:10:31.509, 1554495031509
190, 1336.89, -606.41, 11797.09, -489.34, 0.000, 0.000, 0.000, 14:10:31.509, 1554495031509
191, 1442.33, -235.19, 12507.43, -649.40, 0.000, 0.000, 0.000, 14:10:31.511, 1554495031511
192, 627.08, -839.16, 12430.82, -697.37, 0.000, 0.000, 0.000, 14:10:31.511, 1554495031511
193, 1041.28, -786.34, 12034.89, 14.52, 0.000, 0.000, 0.000, 14:10:31.524, 1554495031524
194, 1643.26, -238.72, 12632.65, 683.86, 0.000, 0.000, 0.000, 14:10:31.524, 1554495031524
195, 770.79, -643.05, 12893.35, 374.35, 0.000, 0.000, 0.000, 14:10:31.539, 1554495031539
196, 818.46, -867.71, 12492.18, 657.54, 0.000, 0.000, 0.000, 14:10:31.539, 1554495031539
197, 1589.03, -392.74, 11974.19, 714.35, 0.000, 0.000, 0.000, 14:10:31.541, 1554495031541
198, 1081.28, -393.36, 11990.51, -185.95, 0.000, 0.000, 0.000, 14:10:31.541, 1554495031541
199, 660.03, -888.64, 11945.21, -593.60, 0.000, 0.000, 0.000, 14:10:31.554, 1554495031554
200, 1321.86, -603.26, 11769.53, -522.72, 0.000, 0.000, 0.000, 14:10:31.554, 1554495031554
0, 1420.98, -221.87, 723.81, 330.69, 0.000, 0.000, 0.000, 14:10:31.556, 1554495031556
1, 627.67, -818.45, 676.91, 280.38, 0.000, 0.000, 0.000, 14:10:31.569, 1554495031569
2, 1051.47, -758.81, 266.20, 1016.62, 0.000, 0.000, 0.000, 14:10:31.569, 1554495031569
3, 1628.75, -231.88, 878.20, 1706.86, 0.000, 0.000, 0.000, 14:10:31.585, 1554495031585
4, 774.74, -629.03, 1159.39, 1411.12, 0.000, 0.000, 0.000, 14:10:31.585, 1554495031585
5, 785.18, -858.14, 701.14, 1612.67, 0.000, 0.000, 0.000, 14:10:31.586, 1554495031586
6, 1556.87, -387.62, 184.66, 1691.86, 0.000, 0.000, 0.000, 14:10:31.586, 1554495031586
7, 1080.27, -379.78, 204.23, 793.43, 0.000, 0.000, 0.000, 14:10:31.599, 1554495031599
8, 643.06, -854.41, 201.31, 429.75, 0.000, 0.000, 0.000, 14:10:31.599, 1554495031599
9, 1312.07, -572.46, 2.07, 429.82, 0.000, 0.000, 0.000, 14:10:31.614, 1554495031614
10, 1433.79, -206.41, 695.70, 326.00, 0.000, 0.000, 0.000, 14:10:31.614, 1554495031614
11, 603.68, -796.53, 673.01, 285.29, 0.000, 0.000, 0.000, 14:10:31.615, 1554495031615
12, 991.22, -755.36, 258.70, 1047.73, 0.000, 0.000, 0.000, 14:10:31.615, 1554495031615
13, 1601.36, -205.30, 856.62, 1703.25, 0.000, 0.000, 0.000, 14:10:31.628, 1554495031628
14, 749.20, -599.06, 1131.99, 1388.71, 0.000, 0.000, 0.000, 14:10:31.628, 1554495031628
15, 779.76, -827.04, 730.11, 1620.36, 0.000, 0.000, 0.000, 14:10:31.691, 1554495031691
16, 1548.09, -360.49, 194.91, 1682.10, 0.000, 0.000, 0.000, 14:10:31.691, 1554495031691
17, 1065.62, -350.91, 1157.97, 782.14, 0.000, 0.000, 0.000, 14:10:31.692, 1554495031692
18, 617.16, -838.62, 200.51, 395.17, 0.000, 0.000, 0.000, 14:10:31.692, 1554495031692
19, 1288.66, -561.99, 11.70, 482.07, 0.000, 0.000, 0.000, 14:10:31.694, 1554495031694
20, 1391.48, -190.25, 723.40, 333.61, 0.000, 0.000, 0.000, 14:10:31.694, 1554495031694
21, 578.29, -776.65, 678.48, 278.63, 0.000, 0.000, 0.000, 14:10:31.694, 1554495031694
22, 985.78, -715.47, 277.82, 1019.90, 0.000, 0.000, 0.000, 14:10:31.694, 1554495031694
23, 1591.96, -182.26, 859.10, 1708.38, 0.000, 0.000, 0.000, 14:10:31.705, 1554495031705
24, 729.88, -574.15, 1127.27, 1361.59, 0.000, 0.000, 0.000, 14:10:31.705, 1554495031705
25, 751.40, -811.43, 685.05, 1591.23, 0.000, 0.000, 0.000, 14:10:31.707, 1554495031707
26, 1516.32, -341.74, 195.76, 1713.39, 0.000, 0.000, 0.000, 14:10:31.707, 1554495031707
27, 1052.56, -329.31, 1160.85, 836.19, 0.000, 0.000, 0.000, 14:10:31.707, 1554495031707
28, 597.69, -829.57, 188.72, 427.05, 0.000, 0.000, 0.000, 14:10:31.707, 1554495031707
29, 1267.30, -543.27, -2.34, 449.33, 0.000, 0.000, 0.000, 14:10:31.708, 1554495031708
30, 1391.22, -160.61, 735.14, 290.26, 0.000, 0.000, 0.000, 14:10:31.708, 1554495031708
31, 570.93, -742.42, 687.06, 281.86, 0.000, 0.000, 0.000, 14:10:31.718, 1554495031718
32, 961.73, -706.88, 272.30, 1020.69, 0.000, 0.000, 0.000, 14:10:31.718, 1554495031718
33, 1587.02, -166.04, 852.84, 1674.48, 0.000, 0.000, 0.000, 14:10:31.734, 1554495031734
34, 713.26, -557.83, 1126.19, 1381.53, 0.000, 0.000, 0.000, 14:10:31.734, 1554495031734
35, 738.89, -779.54, 733.63, 1593.83, 0.000, 0.000, 0.000, 14:10:31.736, 1554495031736
36, 1529.62, -316.08, 215.83, 1735.80, 0.000, 0.000, 0.000, 14:10:31.736, 1554495031736
37, 1033.53, -304.65, 1179.98, 799.21, 0.000, 0.000, 0.000, 14:10:31.781, 1554495031781
38, 584.07, -803.70, 1167.95, 423.09, 0.000, 0.000, 0.000, 14:10:31.781, 1554495031781
39, 1262.32, -509.68, 994.29, 463.86, 0.000, 0.000, 0.000, 14:10:31.782, 1554495031782
40, 1354.87, -126.24, 1714.94, 319.22, 0.000, 0.000, 0.000, 14:10:31.782, 1554495031782
41, 566.26, -716.65, 1653.55, 244.45, 0.000, 0.000, 0.000, 14:10:31.783, 1554495031783
42, 963.39, -665.58, 1251.60, 1018.35, 0.000, 0.000, 0.000, 14:10:31.783, 1554495031783
43, 1568.44, -135.12, 1793.42, 1682.94, 0.000, 0.000, 0.000, 14:10:31.784, 1554495031784
44, 711.13, -520.34, 2123.89, 1402.38, 0.000, 0.000, 0.000, 14:10:31.784, 1554495031784
45, 707.68, -765.37, 1699.82, 1645.85, 0.000, 0.000, 0.000, 14:10:31.794, 1554495031794
46, 1493.08, -293.37, 1191.82, 1697.64, 0.000, 0.000, 0.000, 14:10:31.794, 1554495031794
47, 1019.68, -276.77, 2153.27, 833.31, 0.000, 0.000, 0.000, 14:10:31.795, 1554495031795
48, 563.11, -775.91, 1183.98, 380.19, 0.000, 0.000, 0.000, 14:10:31.795, 1554495031795
49, 1242.80, -491.14, 986.48, 403.83, 0.000, 0.000, 0.000, 14:10:31.808, 1554495031808
50, 1342.31, -111.65, 1698.50, 333.37, 0.000, 0.000, 0.000, 14:10:31.808, 1554495031808
51, 532.40, -695.89, 1673.39, 302.83, 0.000, 0.000, 0.000, 14:10:31.824, 1554495031824
52, 918.54, -645.70, 1256.36, 1033.53, 0.000, 0.000, 0.000, 14:10:31.824, 1554495031824
53, 1537.89, -110.91, 1808.69, 1712.82, 0.000, 0.000, 0.000, 14:10:31.826, 1554495031826
54, 681.99, -502.16, 2111.52, 1402.15, 0.000, 0.000, 0.000, 14:10:31.826, 1554495031826
55, 687.29, -738.47, 1694.80, 1609.36, 0.000, 0.000, 0.000, 14:10:31.839, 1554495031839
56, 1464.78, -266.62, 1190.32, 1686.38, 0.000, 0.000, 0.000, 14:10:31.839, 1554495031839
57, 999.60, -254.50, 2169.17, 796.71, 0.000, 0.000, 0.000, 14:10:31.854, 1554495031854
58, 527.73, -757.34, 2159.70, 375.34, 0.000, 0.000, 0.000, 14:10:31.854, 1554495031854
59, 1207.51, -466.52, 1990.25, 460.81, 0.000, 0.000, 0.000, 14:10:31.856, 1554495031856
60, 1334.76, -86.86, 2686.31, 309.48, 0.000, 0.000, 0.000, 14:10:31.856, 1554495031856
61, 494.04, -669.74, 2653.33, 279.29, 0.000, 0.000, 0.000, 14:10:31.869, 1554495031869
62, 901.13, -626.73, 2249.57, 1009.52, 0.000, 0.000, 0.000, 14:10:31.869, 1554495031869
63, 1521.80, -87.73, 2782.67, 1726.54, 0.000, 0.000, 0.000, 14:10:31.884, 1554495031884
64, 648.98, -451.88, 3130.00, 1401.01, 0.000, 0.000, 0.000, 14:10:31.884, 1554495031884
65, 671.49, -698.01, 2693.17, 1606.72, 0.000, 0.000, 0.000, 14:10:31.885, 1554495031885
66, 1436.98, -243.22, 2164.23, 1707.84, 0.000, 0.000, 0.000, 14:10:31.885, 1554495031885
67, 975.09, -234.63, 3128.17, 819.25, 0.000, 0.000, 0.000, 14:10:31.899, 1554495031899
68, 502.65, -736.31, 3121.04, 371.45, 0.000, 0.000, 0.000, 14:10:31.899, 1554495031899
69, 1183.13, -452.25, 2953.19, 422.05, 0.000, 0.000, 0.000, 14:10:31.914, 1554495031914
70, 1314.21, -74.64, 3647.26, 364.30, 0.000, 0.000, 0.000, 14:10:31.914, 1554495031914
71, 477.25, -716.32, 3623.89, 267.63, 0.000, 0.000, 0.000, 14:10:31.916, 1554495031916
72, 865.13, -695.22, 3211.04, 1008.03, 0.000, 0.000, 0.000, 14:10:31.916, 1554495031916
73, 1502.32, -140.99, 3725.78, 1707.99, 0.000, 0.000, 0.000, 14:10:31.929, 1554495031929
74, 651.68, -503.02, 4080.23, 1394.45, 0.000, 0.000, 0.000, 14:10:31.929, 1554495031929
75, 663.40, -751.06, 3659.59, 1576.45, 0.000, 0.000, 0.000, 14:10:31.944, 1554495031944
76, 1433.23, -286.31, 3118.81, 1728.24, 0.000, 0.000, 0.000, 14:10:31.944, 1554495031944
77, 964.87, -266.23, 3126.56, 859.59, 0.000, 0.000, 0.000, 14:10:31.946, 1554495031946
78, 512.87, -765.86, 2167.59, 357.55, 0.000, 0.000, 0.000, 14:10:31.946, 1554495031946
79, 1185.77, -487.23, 1970.71, 449.86, 0.000, 0.000, 0.000, 14:10:31.973, 1554495031973
80, 1295.01, -93.61, 2664.27, 356.28, 0.000, 0.000, 0.000, 14:10:31.973, 1554495031973
81, 457.33, -689.47, 2629.50, 270.17, 0.000, 0.000, 0.000, 14:10:32.008, 1554495032008
82, 866.24, -631.54, 2247.57, 961.77, 0.000, 0.000, 0.000, 14:10:32.008, 1554495032008
83, 1490.37, -96.32, 2766.10, 1716.92, 0.000, 0.000, 0.000, 14:10:32.011, 1554495032011
84, 645.87, -476.43, 3110.95, 1397.65, 0.000, 0.000, 0.000, 14:10:32.011, 1554495032011
85, 622.37, -716.63, 2691.50, 1634.83, 0.000, 0.000, 0.000, 14:10:32.011, 1554495032011
86, 1400.37, -246.31, 2151.33, 1712.69, 0.000, 0.000, 0.000, 14:10:32.011, 1554495032011
87, 954.85, -221.34, 3116.96, 803.18, 0.000, 0.000, 0.000, 14:10:32.012, 1554495032012
88, 478.06, -731.12, 2165.44, 339.69, 0.000, 0.000, 0.000, 14:10:32.012, 1554495032012
89, 1157.48, -443.80, 1959.97, 444.92, 0.000, 0.000, 0.000, 14:10:32.019, 1554495032019
90, 1282.57, -59.54, 2648.25, 378.69, 0.000, 0.000, 0.000, 14:10:32.019, 1554495032019
91, 442.78, -650.13, 2635.46, 265.75, 0.000, 0.000, 0.000, 14:10:32.021, 1554495032021
92, 836.79, -605.21, 2228.02, 945.05, 0.000, 0.000, 0.000, 14:10:32.021, 1554495032021
93, 1453.91, -61.44, 2775.75, 1666.62, 0.000, 0.000, 0.000, 14:10:32.034, 1554495032034
94, 643.22, -432.95, 3104.35, 1327.62, 0.000, 0.000, 0.000, 14:10:32.034, 1554495032034
95, 616.68, -692.51, 2690.07, 1627.49, 0.000, 0.000, 0.000, 14:10:32.035, 1554495032035
96, 1380.44, -233.78, 2158.59, 1748.18, 0.000, 0.000, 0.000, 14:10:32.035, 1554495032035
97, 950.21, -210.52, 2166.82, 838.85, 0.000, 0.000, 0.000, 14:10:32.048, 1554495032048
98, 460.60, -710.11, 2151.44, 402.29, 0.000, 0.000, 0.000, 14:10:32.048, 1554495032048
99, 1115.07, -440.00, 1963.59, 428.58, 0.000, 0.000, 0.000, 14:10:32.064, 1554495032064
100, 1274.35, -39.22, 2648.36, 339.45, 0.000, 0.000, 0.000, 14:10:32.064, 1554495032064
101, 432.41, -628.75, 2649.27, 252.60, 0.000, 0.000, 0.000, 14:10:32.065, 1554495032065
102, 843.63, -579.16, 2236.38, 969.08, 0.000, 0.000, 0.000, 14:10:32.065, 1554495032065
103, 1458.04, -40.23, 2758.74, 1669.48, 0.000, 0.000, 0.000, 14:10:32.079, 1554495032079
104, 603.95, -418.06, 3108.22, 1364.81, 0.000, 0.000, 0.000, 14:10:32.079, 1554495032079
105, 599.68, -663.13, 2701.48, 1656.29, 0.000, 0.000, 0.000, 14:10:32.094, 1554495032094
106, 1366.11, -199.93, 2153.37, 1706.12, 0.000, 0.000, 0.000, 14:10:32.094, 1554495032094
107, 921.28, -168.87, 2154.66, 824.54, 0.000, 0.000, 0.000, 14:10:32.095, 1554495032095
108, 432.72, -675.95, 1176.22, 363.17, 0.000, 0.000, 0.000, 14:10:32.095, 1554495032095
109, 1124.79, -401.61, 976.75, 408.26, 0.000, 0.000, 0.000, 14:10:32.109, 1554495032109
110, 1245.96, -4.11, 1645.52, 353.55, 0.000, 0.000, 0.000, 14:10:32.109, 1554495032109
111, 415.01, -597.12, 1693.42, 273.62, 0.000, 0.000, 0.000, 14:10:32.124, 1554495032124
112, 802.46, -568.98, 1257.35, 912.27, 0.000, 0.000, 0.000, 14:10:32.124, 1554495032124
113, 1416.84, -12.01, 1757.58, 1695.03, 0.000, 0.000, 0.000, 14:10:32.125, 1554495032125
114, 591.62, -387.72, 2143.32, 1390.77, 0.000, 0.000, 0.000, 14:10:32.125, 1554495032125
115, 568.41, -635.61, 1697.14, 1606.09, 0.000, 0.000, 0.000, 14:10:32.138, 1554495032138
116, 1347.44, -179.66, 1137.03, 1682.91, 0.000, 0.000, 0.000, 14:10:32.138, 1554495032138
117, 894.95, -153.53, 1142.91, 825.67, 0.000, 0.000, 0.000, 14:10:32.154, 1554495032154
118, 412.71, -665.11, 199.88, 365.50, 0.000, 0.000, 0.000, 14:10:32.154, 1554495032154
119, 1083.16, -380.75, -11.92, 399.55, 0.000, 0.000, 0.000, 14:10:32.156, 1554495032156
120, 1243.67, 15.46, 691.76, 291.30, 0.000, 0.000, 0.000, 14:10:32.156, 1554495032156
121, 390.31, -577.88, 710.86, 282.84, 0.000, 0.000, 0.000, 14:10:32.169, 1554495032169
122, 768.72, -547.79, 286.12, 975.32, 0.000, 0.000, 0.000, 14:10:32.169, 1554495032169
123, 1401.81, -9.05, 775.55, 1715.48, 0.000, 0.000, 0.000, 14:10:32.184, 1554495032184
124, 565.82, -381.65, 1130.61, 1398.12, 0.000, 0.000, 0.000, 14:10:32.184, 1554495032184
125, 539.04, -634.81, 730.56, 1559.01, 0.000, 0.000, 0.000, 14:10:32.186, 1554495032186
